FileType=PCF
NHL=14
Date=08/29/17	08:39:27
Facility=APL
Serial=16328-13
Customer=NASA
NP=6
Mach=0.150000
Calibration=1:1
CalPts=490
TstPts=95
PortNumbering=AP Standard
Units=Torr C m/s kg/m^3 deg mm 
Theta[deg]	Phi[deg]	P1[Torr]	P2[Torr]	P3[Torr]	P4[Torr]	P5[Torr]	P6[Torr]	Pt[Torr]	Ps[Abs,Torr]	Ts[C]	
  0.000	  0.000	 11.13896	  5.83487	  5.62299	  5.65280	  5.88568	  0.09131	 11.13090	705.39301	 23.50	
  1.691	128.401	 11.15122	  5.49567	  5.96705	  6.08855	  5.44652	  0.08755	 11.14150	705.63800	 23.50	
  1.692	 77.194	 11.14108	  5.96322	  5.47810	  6.19622	  5.33041	  0.08522	 11.12876	705.60999	 23.50	
  1.699	 26.182	 11.13855	  6.33463	  5.10461	  5.89297	  5.61918	  0.08416	 11.13111	705.59003	 23.50	
  1.699	-26.182	 11.17050	  6.33833	  5.12300	  5.41285	  6.12900	  0.07965	 11.16243	705.68298	 23.50	
  1.692	-77.194	 11.14391	  5.93535	  5.49154	  5.11205	  6.42205	  0.07819	 11.13868	705.46002	 23.50	
  1.691	-128.401	 11.16648	  5.48331	  5.98053	  5.22184	  6.33075	  0.07961	 11.15413	705.65503	 23.50	
  1.700	180.000	 11.15215	  5.27874	  6.19145	  5.64323	  5.88570	  0.08683	 11.14148	705.54999	 23.50	
  3.400	180.000	 11.13478	  4.68847	  6.74564	  5.58322	  5.82858	  0.06612	 11.13825	705.52002	 23.50	
  3.388	-152.325	 11.13717	  4.80040	  6.59801	  5.07140	  6.36076	  0.04568	 11.14404	705.58698	 23.50	
  3.397	-124.529	 11.12146	  5.12232	  6.20900	  4.68256	  6.77522	  0.03910	 11.13659	705.52802	 23.50	
  3.399	-96.763	 11.12675	  5.61032	  5.68553	  4.50747	  6.97630	  0.03128	 11.14265	705.40997	 23.50	
  3.394	-69.283	 11.12556	  6.14531	  5.15464	  4.56946	  6.90315	  0.03049	 11.14860	705.42401	 23.50	
  3.400	-41.398	 11.13042	  6.61819	  4.72442	  4.85823	  6.57372	  0.04365	 11.15176	705.46600	 23.50	
  3.401	-14.021	 11.11818	  6.87840	  4.48853	  5.29101	  6.09576	  0.04666	 11.13416	705.42603	 23.50	
  3.401	 14.021	 11.12085	  6.89442	  4.48646	  5.86099	  5.53318	  0.05680	 11.13303	705.56799	 23.50	
  3.400	 41.398	 11.13627	  6.64466	  4.73065	  6.36175	  5.08865	  0.05809	 11.14140	705.52802	 23.50	
  3.394	 69.283	 11.16167	  6.21743	  5.15846	  6.67844	  4.82709	  0.05259	 11.16339	705.40198	 23.50	
  3.399	 96.763	 11.14848	  5.66264	  5.70014	  6.74821	  4.75656	  0.05291	 11.15190	705.43701	 23.50	
  3.397	124.529	 11.15697	  5.18023	  6.22014	  6.55054	  4.93820	  0.05191	 11.16103	705.49902	 23.50	
  3.388	152.325	 11.13517	  4.82414	  6.59324	  6.11064	  5.31953	  0.05728	 11.13820	705.51300	 23.40	
  5.099	161.165	 11.09139	  4.14764	  7.18261	  6.06599	  5.18781	  0.02434	 11.13562	705.59900	 23.50	
  5.109	142.013	 11.09302	  4.40438	  6.88758	  6.59326	  4.70463	  0.01834	 11.14140	705.50299	 23.50	
  5.095	123.033	 11.12704	  4.80749	  6.45437	  7.01019	  4.37479	  0.01054	 11.17036	705.51898	 23.40	
  5.105	104.191	 11.10671	  5.29801	  5.89527	  7.24511	  4.15304	  0.00320	 11.14589	705.65503	 23.40	
  5.093	 85.207	 11.08335	  5.85543	  5.30157	  7.27429	  4.10567	 -0.00066	 11.12877	705.56201	 23.40	
  5.104	 66.290	 11.10732	  6.42768	  4.77733	  7.14487	  4.23238	 -0.00024	 11.15930	705.48199	 23.40	
  5.094	 47.331	 11.10851	  6.92484	  4.32476	  6.81106	  4.52108	  0.00467	 11.16724	705.40100	 23.40	
  5.089	 28.397	 11.08445	  7.26612	  3.99896	  6.33339	  4.92668	  0.00661	 11.15295	705.44897	 23.40	
  5.096	  9.576	 11.09369	  7.46239	  3.83808	  5.78835	  5.45511	  0.00503	 11.16972	705.40997	 23.40	
  5.096	 -9.576	 11.05599	  7.42846	  3.82656	  5.19536	  6.01523	  0.00723	 11.13422	705.51099	 23.40	
  5.089	-28.397	 11.05338	  7.21910	  4.00206	  4.68844	  6.55721	  0.00196	 11.14162	705.43701	 23.40	
  5.094	-47.331	 11.07072	  6.85807	  4.33055	  4.27005	  7.04341	 -0.01218	 11.15847	705.56702	 23.40	
  5.104	-66.290	 11.06799	  6.35949	  4.78233	  3.98002	  7.38063	 -0.02524	 11.15957	705.47498	 23.40	
  5.093	-85.207	 11.04730	  5.78640	  5.31637	  3.84772	  7.51314	 -0.02720	 11.12774	705.67102	 23.40	
  5.105	-104.191	 11.07003	  5.23299	  5.90763	  3.89259	  7.48551	 -0.02482	 11.15408	705.50299	 23.40	
  5.095	-123.033	 11.08058	  4.74440	  6.45289	  4.11151	  7.24482	 -0.01109	 11.15419	705.62598	 23.40	
  5.109	-142.013	 11.10660	  4.36763	  6.91513	  4.48022	  6.85174	  0.00208	 11.17365	705.61700	 23.40	
  5.099	-161.165	 11.10049	  4.12632	  7.19964	  4.95869	  6.32174	  0.01294	 11.15901	705.60303	 23.40	
  5.100	180.000	 11.11097	  4.05930	  7.29884	  5.50557	  5.75988	  0.01941	 11.16231	705.56500	 23.40	
  6.800	180.000	 11.01495	  3.40718	  7.82079	  5.40239	  5.65822	 -0.04155	 11.15605	705.57800	 23.40	
  6.796	-166.229	 11.01707	  3.45398	  7.75823	  4.86207	  6.21809	 -0.04589	 11.16653	705.57501	 23.40	
  6.808	-152.311	 10.98083	  3.60345	  7.52800	  4.34316	  6.73961	 -0.05120	 11.13983	705.56201	 23.40	
  6.795	-138.383	 11.00431	  3.89168	  7.20261	  3.91118	  7.24649	 -0.06892	 11.17887	705.55402	 23.40	
  6.792	-124.591	 10.98183	  4.27005	  6.74262	  3.56134	  7.62570	 -0.07954	 11.15860	705.56201	 23.40	
  6.787	-110.754	 10.96634	  4.72982	  6.21594	  3.32316	  7.89085	 -0.09404	 11.14913	705.58099	 23.40	
  6.800	-96.985	 10.94393	  5.23887	  5.64893	  3.19630	  8.01639	 -0.11061	 11.13865	705.48901	 23.40	
  6.800	-83.015	 10.95566	  5.81554	  5.08279	  3.20176	  8.02596	 -0.11350	 11.15705	705.60101	 23.40	
  6.787	-69.246	 10.95170	  6.36608	  4.54973	  3.32123	  7.87984	 -0.10475	 11.15418	705.52802	 23.40	
  6.792	-55.409	 10.93130	  6.87055	  4.06597	  3.54503	  7.59131	 -0.09709	 11.13250	705.39301	 23.40	
  6.795	-41.617	 10.95336	  7.33136	  3.68170	  3.89347	  7.21126	 -0.08181	 11.15621	705.46100	 23.40	
  6.808	-27.689	 10.94174	  7.67372	  3.37652	  4.32363	  6.71229	 -0.06421	 11.14155	705.55103	 23.40	
  6.796	-13.771	 10.95494	  7.89768	  3.20347	  4.83152	  6.17465	 -0.05839	 11.14519	705.54199	 23.40	
  6.800	  0.000	 10.95296	  7.97425	  3.13944	  5.37081	  5.61616	 -0.06618	 11.13812	705.53003	 23.40	
  6.796	 13.771	 10.98377	  7.93247	  3.19815	  5.94565	  5.07689	 -0.06634	 11.16158	705.43201	 23.40	
  6.808	 27.689	 10.99569	  7.73925	  3.37533	  6.49359	  4.57296	 -0.06068	 11.16146	705.49200	 23.40	
  6.795	 41.617	 11.00608	  7.40290	  3.67919	  6.97742	  4.15221	 -0.06713	 11.16269	705.46802	 23.40	
  6.792	 55.409	 11.01598	  6.97355	  4.07408	  7.37449	  3.81874	 -0.07244	 11.15706	705.40399	 23.40	
  6.787	 69.246	 11.00937	  6.45707	  4.54328	  7.64911	  3.58479	 -0.06966	 11.14676	705.49597	 23.40	
  6.800	 83.015	 11.03228	  5.92014	  5.07967	  7.81218	  3.47440	 -0.07742	 11.15946	705.58698	 23.40	
  6.800	 96.985	 11.01679	  5.34538	  5.64330	  7.80130	  3.46840	 -0.07787	 11.13956	705.40900	 23.40	
  6.787	110.754	 11.05436	  4.84135	  6.22053	  7.68188	  3.60656	 -0.06567	 11.18086	705.53003	 23.40	
  6.792	124.591	 11.02187	  4.35714	  6.72537	  7.38494	  3.82679	 -0.05896	 11.14831	705.51398	 23.40	
  6.795	138.383	 11.00933	  3.96509	  7.16611	  6.98206	  4.16507	 -0.05008	 11.13652	705.44897	 23.40	
  6.808	152.311	 11.01330	  3.66436	  7.52143	  6.50873	  4.59059	 -0.03999	 11.14256	705.46802	 23.40	
  6.796	166.229	 11.03547	  3.48666	  7.75459	  5.97955	  5.11048	 -0.03567	 11.16852	705.54999	 23.40	
  8.491	168.704	 10.88850	  2.79956	  8.24579	  5.85699	  4.94943	 -0.11066	 11.14506	705.41602	 23.40	
  8.502	157.493	 10.89263	  2.94863	  8.07050	  6.41375	  4.42519	 -0.10617	 11.14573	705.49200	 23.40	
  8.494	146.194	 10.90903	  3.20786	  7.78174	  6.94923	  3.95926	 -0.12237	 11.16298	705.45697	 23.40	
  8.495	135.039	 10.90512	  3.53615	  7.38834	  7.41038	  3.55176	 -0.13702	 11.15422	705.37299	 23.40	
  8.487	123.723	 10.90708	  3.95515	  6.90725	  7.79871	  3.22596	 -0.14448	 11.15227	705.44000	 23.40	
  8.492	112.575	 10.93277	  4.43459	  6.39477	  8.10099	  2.99669	 -0.15273	 11.17649	705.46100	 23.40	
  8.510	101.220	 10.90067	  4.94944	  5.80325	  8.26075	  2.83566	 -0.17307	 11.14713	705.36401	 23.40	
  8.500	 90.000	 10.90557	  5.51166	  5.22795	  8.31758	  2.79004	 -0.17593	 11.15258	705.31097	 23.40	
  8.510	 78.780	 10.90112	  6.08235	  4.65553	  8.25934	  2.82662	 -0.16238	 11.16108	705.34802	 23.40	
  8.492	 67.425	 10.89748	  6.64640	  4.11940	  8.07673	  2.96901	 -0.14776	 11.16447	705.45502	 23.40	
  8.487	 56.277	 10.87430	  7.14857	  3.63605	  7.77690	  3.19647	 -0.15633	 11.14894	705.47699	 23.40	
  8.495	 44.961	 10.85418	  7.60622	  3.21245	  7.37767	  3.51344	 -0.15355	 11.14418	705.30902	 23.30	
  8.494	 33.806	 10.82652	  7.96241	  2.87995	  6.89477	  3.91193	 -0.14186	 11.12324	705.43500	 23.40	
  8.502	 22.507	 10.84015	  8.26021	  2.63974	  6.38309	  4.38757	 -0.14166	 11.15797	705.35602	 23.30	
  8.491	 11.296	 10.81263	  8.40672	  2.49653	  5.81191	  4.90609	 -0.15092	 11.13692	705.31097	 23.30	
  8.500	  0.000	 10.81522	  8.46577	  2.44955	  5.23310	  5.47958	 -0.14909	 11.15025	705.46503	 23.30	
  8.491	-11.296	 10.81460	  8.39554	  2.50718	  4.67201	  6.05674	 -0.13589	 11.15264	705.34802	 23.30	
  8.502	-22.507	 10.80140	  8.20681	  2.64828	  4.14481	  6.61061	 -0.13306	 11.14565	705.51099	 23.30	
  8.494	-33.806	 10.79246	  7.90385	  2.89362	  3.66328	  7.14128	 -0.15272	 11.14846	705.47498	 23.30	
  8.495	-44.961	 10.79116	  7.51608	  3.22407	  3.25296	  7.61192	 -0.18002	 11.15003	705.44397	 23.30	
  8.487	-56.277	 10.81274	  7.05218	  3.65313	  2.94106	  8.00380	 -0.18902	 11.16662	705.46600	 23.30	
  8.492	-67.425	 10.79288	  6.51741	  4.11999	  2.69754	  8.27835	 -0.20105	 11.14899	705.41803	 23.30	
  8.510	-78.780	 10.80567	  5.95466	  4.66214	  2.54484	  8.47162	 -0.21036	 11.16110	705.59802	 23.30	
  8.500	-90.000	 10.80174	  5.37610	  5.23236	  2.49914	  8.52319	 -0.21075	 11.14861	705.57300	 23.30	
  8.510	-101.220	 10.80945	  4.81799	  5.81101	  2.54637	  8.47293	 -0.20152	 11.15264	705.52301	 23.30	
  8.492	-112.575	 10.83224	  4.30176	  6.39458	  2.70990	  8.30245	 -0.17507	 11.16412	705.45502	 23.40	
  8.487	-123.723	 10.83885	  3.84092	  6.91854	  2.95098	  8.02213	 -0.15482	 11.16650	705.44000	 23.30	
  8.495	-135.039	 10.84978	  3.43901	  7.39690	  3.27741	  7.64901	 -0.14554	 11.16712	705.44702	 23.30	
  8.494	-146.194	 10.87014	  3.12740	  7.79402	  3.69484	  7.19407	 -0.13459	 11.17818	705.50500	 23.30	
  8.502	-157.493	 10.87379	  2.89656	  8.08653	  4.18057	  6.65790	 -0.12295	 11.16771	705.37299	 23.40	
  8.491	-168.704	 10.87713	  2.77104	  8.25443	  4.70628	  6.09767	 -0.12286	 11.16294	705.45203	 23.40	
  8.500	180.000	 10.89714	  2.73760	  8.32271	  5.27725	  5.52954	 -0.12386	 11.16939	705.56799	 23.30	
 10.200	180.000	 10.71943	  2.05646	  8.78030	  5.11549	  5.36320	 -0.21470	 11.15896	705.40900	 23.40	
 10.191	-170.497	 10.70279	  2.07611	  8.72975	  4.53962	  5.93832	 -0.22117	 11.15809	705.29102	 23.30	
 10.210	-161.034	 10.69047	  2.17868	  8.57945	  3.99497	  6.50961	 -0.21086	 11.16380	705.43701	 23.40	
 10.194	-151.526	 10.68283	  2.37230	  8.32390	  3.48548	  7.06565	 -0.21596	 11.16581	705.40601	 23.40	
 10.190	-142.105	 10.65962	  2.63485	  7.97244	  3.03165	  7.56130	 -0.22051	 11.15719	705.45099	 23.40	
 10.215	-132.646	 10.66198	  2.97186	  7.56715	  2.64513	  8.01554	 -0.22843	 11.16853	705.40900	 23.40	
 10.203	-123.092	 10.65149	  3.38462	  7.07036	  2.32251	  8.39147	 -0.24181	 11.16702	705.52698	 23.40	
 10.192	-113.678	 10.63799	  3.85216	  6.52560	  2.08064	  8.67140	 -0.26031	 11.16234	705.41998	 23.40	
 10.208	-104.249	 10.63763	  4.36370	  5.96209	  1.90896	  8.88068	 -0.29401	 11.17327	705.51099	 23.40	
 10.210	-94.801	 10.62600	  4.91250	  5.37253	  1.82096	  8.97733	 -0.31282	 11.16662	705.40399	 23.40	
 10.210	-85.199	 10.59422	  5.48431	  4.76618	  1.81327	  8.95454	 -0.31903	 11.14540	705.47400	 23.40	
 10.208	-75.751	 10.60094	  6.06765	  4.20862	  1.89568	  8.85968	 -0.31309	 11.15313	705.54999	 23.40	
 10.192	-66.322	 10.60643	  6.63679	  3.68599	  2.06762	  8.65787	 -0.30070	 11.16100	705.44702	 23.40	
 10.203	-56.908	 10.60215	  7.17167	  3.19994	  2.30424	  8.36471	 -0.29044	 11.15743	705.38098	 23.40	
 10.215	-47.354	 10.62085	  7.68129	  2.77584	  2.62502	  7.99543	 -0.27524	 11.17993	705.44397	 23.40	
 10.190	-37.895	 10.59188	  8.07410	  2.41841	  3.00032	  7.52323	 -0.25457	 11.14403	705.43500	 23.40	
 10.194	-28.474	 10.62768	  8.44325	  2.14265	  3.45199	  7.04007	 -0.22843	 11.17171	705.52698	 23.40	
 10.210	-18.966	 10.63210	  8.70758	  1.92826	  3.95919	  6.47978	 -0.21947	 11.17163	705.52197	 23.40	
 10.191	 -9.503	 10.61899	  8.84515	  1.80389	  4.49261	  5.89651	 -0.22169	 11.14805	705.37000	 23.40	
 10.200	  0.000	 10.63193	  8.91663	  1.75791	  5.06424	  5.31887	 -0.23618	 11.15425	705.71997	 23.40	
 10.191	  9.503	 10.66860	  8.90196	  1.79773	  5.67130	  4.75193	 -0.24228	 11.18235	705.51898	 23.40	
 10.210	 18.966	 10.65139	  8.74310	  1.90944	  6.23032	  4.19888	 -0.23552	 11.15378	705.49902	 23.40	
 10.194	 28.474	 10.69730	  8.53089	  2.12680	  6.80728	  3.71605	 -0.22967	 11.18542	705.46899	 23.30	
 10.190	 37.895	 10.70373	  8.20300	  2.40333	  7.32311	  3.26598	 -0.24129	 11.18291	705.37097	 23.30	
 10.215	 47.354	 10.67726	  7.77450	  2.73980	  7.75998	  2.86040	 -0.24728	 11.14588	705.34003	 23.40	
 10.203	 56.908	 10.70051	  7.30545	  3.17614	  8.14750	  2.56240	 -0.24508	 11.15524	705.44000	 23.30	
 10.192	 66.322	 10.73169	  6.79279	  3.67164	  8.45431	  2.34372	 -0.24126	 11.16926	705.43298	 23.40	
 10.208	 75.751	 10.72132	  6.22720	  4.18993	  8.65184	  2.17991	 -0.25377	 11.15253	705.39001	 23.40	
 10.210	 85.199	 10.73610	  5.65503	  4.75787	  8.76509	  2.10563	 -0.27390	 11.15720	705.45203	 23.40	
 10.210	 94.801	 10.74492	  5.06996	  5.35826	  8.77257	  2.10857	 -0.28152	 11.15911	705.39001	 23.40	
 10.208	104.249	 10.74517	  4.51583	  5.94350	  8.66866	  2.19429	 -0.27176	 11.15606	705.26398	 23.40	
 10.192	113.678	 10.75331	  4.00039	  6.51877	  8.46778	  2.36695	 -0.25039	 11.16165	705.41302	 23.40	
 10.203	123.092	 10.75440	  3.51806	  7.06387	  8.18541	  2.59802	 -0.24038	 11.16430	705.32599	 23.40	
 10.215	132.646	 10.73931	  3.08615	  7.55010	  7.80067	  2.90063	 -0.22754	 11.15240	705.43500	 23.30	
 10.190	142.105	 10.75445	  2.74162	  7.98167	  7.35623	  3.30185	 -0.21473	 11.17010	705.43500	 23.30	
 10.194	151.526	 10.74068	  2.45540	  8.31867	  6.83615	  3.74867	 -0.19721	 11.16106	705.36200	 23.40	
 10.210	161.034	 10.72155	  2.23298	  8.56485	  6.27508	  4.23993	 -0.18488	 11.14712	705.39502	 23.30	
 10.191	170.497	 10.72980	  2.11380	  8.72391	  5.70940	  4.78823	 -0.19826	 11.15966	705.27100	 23.40	
 11.899	171.783	 10.51198	  1.42100	  9.15656	  5.52258	  4.59112	 -0.29068	 11.15702	705.38702	 23.40	
 11.890	163.610	 10.53947	  1.53554	  9.03829	  6.11140	  4.05502	 -0.27407	 11.17481	705.41602	 23.30	
 11.889	155.445	 10.53674	  1.71674	  8.80927	  6.67487	  3.53862	 -0.27083	 11.16289	705.50299	 23.30	
 11.909	147.299	 10.53025	  1.95363	  8.50244	  7.21019	  3.05500	 -0.28544	 11.15756	705.52002	 23.30	
 11.902	139.148	 10.54646	  2.26830	  8.12843	  7.70725	  2.64004	 -0.29891	 11.16563	705.41602	 23.30	
 11.894	130.867	 10.54411	  2.64818	  7.67102	  8.14046	  2.27989	 -0.31321	 11.15795	705.45801	 23.30	
 11.897	122.732	 10.55989	  3.07193	  7.18182	  8.52676	  1.97587	 -0.33524	 11.17383	705.47198	 23.30	
 11.903	114.597	 10.54989	  3.54183	  6.63279	  8.82212	  1.72981	 -0.35403	 11.16527	705.52002	 23.30	
 11.893	106.346	 10.54340	  4.06508	  6.04796	  9.03662	  1.55342	 -0.37412	 11.16011	705.44397	 23.30	
 11.892	 98.155	 10.53971	  4.61328	  5.45450	  9.16539	  1.44715	 -0.38806	 11.15843	705.33002	 23.30	
 11.900	 90.000	 10.52870	  5.17855	  4.86075	  9.20286	  1.40616	 -0.38768	 11.15503	705.54401	 23.30	
 11.892	 81.845	 10.52769	  5.76357	  4.28163	  9.15633	  1.43990	 -0.36693	 11.16185	705.47400	 23.30	
 11.893	 73.654	 10.53662	  6.34784	  3.72982	  9.03374	  1.53984	 -0.34426	 11.17809	705.38702	 23.30	
 11.903	 65.403	 10.50940	  6.90262	  3.19483	  8.79424	  1.70506	 -0.32837	 11.16129	705.42401	 23.30	
 11.897	 57.268	 10.47991	  7.41715	  2.71025	  8.47123	  1.93415	 -0.32710	 11.14498	705.24402	 23.30	
 11.894	 49.133	 10.48466	  7.90991	  2.29099	  8.10083	  2.24386	 -0.33048	 11.15811	705.37799	 23.30	
 11.902	 40.852	 10.45514	  8.32907	  1.91151	  7.64858	  2.59238	 -0.33394	 11.14801	705.37500	 23.30	
 11.909	 32.701	 10.45655	  8.69974	  1.60979	  7.16243	  3.01340	 -0.32561	 11.16308	705.41199	 23.30	
 11.889	 24.555	 10.45354	  8.98572	  1.38084	  6.62072	  3.49692	 -0.32367	 11.17103	705.37799	 23.30	
 11.890	 16.390	 10.45123	  9.19855	  1.20974	  6.06037	  4.01112	 -0.32910	 11.17983	705.31897	 23.30	
 11.899	  8.217	 10.41795	  9.29759	  1.10513	  5.46818	  4.54736	 -0.32950	 11.16072	705.40997	 23.30	
 11.900	  0.000	 10.39424	  9.31813	  1.07285	  4.86538	  5.12279	 -0.31495	 11.14917	705.49103	 23.30	
 11.899	 -8.217	 10.40196	  9.27761	  1.10976	  4.29932	  5.71078	 -0.30249	 11.16447	705.47400	 23.30	
 11.890	-16.390	 10.37990	  9.12271	  1.21824	  3.74939	  6.28154	 -0.28845	 11.15079	705.34698	 23.30	
 11.889	-24.555	 10.38221	  8.90191	  1.39726	  3.23234	  6.85797	 -0.29502	 11.16027	705.39801	 23.30	
 11.909	-32.701	 10.35623	  8.58172	  1.63277	  2.75455	  7.37694	 -0.31572	 11.14285	705.36401	 23.30	
 11.902	-40.852	 10.36728	  8.21481	  1.94213	  2.34732	  7.87028	 -0.33578	 11.15340	705.40198	 23.30	
 11.894	-49.133	 10.36349	  7.76209	  2.31530	  1.97986	  8.31069	 -0.35680	 11.15279	705.54401	 23.30	
 11.897	-57.268	 10.37166	  7.27318	  2.73853	  1.67581	  8.69213	 -0.37381	 11.16739	705.42700	 23.30	
 11.903	-65.403	 10.37710	  6.73576	  3.21834	  1.43671	  8.99550	 -0.37975	 11.17098	705.47198	 23.30	
 11.893	-73.654	 10.35477	  6.14538	  3.74002	  1.26655	  9.18927	 -0.38998	 11.14085	705.41199	 23.30	
 11.892	-81.845	 10.38147	  5.57831	  4.30488	  1.17081	  9.34013	 -0.39446	 11.16348	705.35699	 23.30	
 11.900	-90.000	 10.40402	  5.00406	  4.89238	  1.13990	  9.40147	 -0.40053	 11.17952	705.39600	 23.30	
 11.892	-98.155	 10.39611	  4.43082	  5.47414	  1.17705	  9.34571	 -0.39921	 11.16728	705.35101	 23.30	
 11.893	-106.346	 10.39790	  3.88718	  6.05665	  1.27736	  9.21545	 -0.37549	 11.15720	705.37000	 23.30	
 11.903	-114.597	 10.40871	  3.38051	  6.63239	  1.44859	  9.01284	 -0.34631	 11.16574	705.35901	 23.30	
 11.897	-122.732	 10.40086	  2.91581	  7.16380	  1.69123	  8.69982	 -0.32006	 11.14403	705.37903	 23.30	
 11.894	-130.867	 10.42913	  2.51299	  7.67556	  2.00572	  8.34943	 -0.30526	 11.16256	705.38702	 23.30	
 11.902	-139.148	 10.43714	  2.15264	  8.12249	  2.37770	  7.90557	 -0.30449	 11.15849	705.44098	 23.30	
 11.909	-147.299	 10.45795	  1.86523	  8.50664	  2.79876	  7.43185	 -0.30382	 11.17011	705.33002	 23.30	
 11.889	-155.445	 10.46152	  1.64418	  8.79831	  3.27484	  6.89525	 -0.30417	 11.15741	705.39301	 23.30	
 11.890	-163.610	 10.46926	  1.49087	  9.01354	  3.79740	  6.32361	 -0.30876	 11.15185	705.26801	 23.30	
 11.899	-171.783	 10.48368	  1.39800	  9.15053	  4.34861	  5.74909	 -0.31487	 11.15419	705.40601	 23.30	
 11.900	180.000	 10.52669	  1.37857	  9.22254	  4.93799	  5.18539	 -0.30658	 11.18256	705.30200	 23.30	
 13.600	180.000	 10.25878	  0.70279	  9.59584	  4.71665	  4.95684	 -0.39730	 11.16707	705.26001	 23.30	
 13.608	-172.853	 10.23319	  0.71296	  9.55010	  4.14207	  5.51967	 -0.40638	 11.15659	705.41803	 23.30	
 13.611	-165.583	 10.23335	  0.78561	  9.44514	  3.58587	  6.11458	 -0.40559	 11.17361	705.52002	 23.30	
 13.601	-158.353	 10.21333	  0.92146	  9.23953	  3.04733	  6.69106	 -0.39340	 11.16843	705.35400	 23.30	
 13.609	-151.210	 10.17795	  1.10340	  8.95517	  2.55584	  7.21779	 -0.38893	 11.14713	705.49701	 23.30	
 13.611	-143.999	 10.17759	  1.35388	  8.62544	  2.11182	  7.74113	 -0.38187	 11.15662	705.41602	 23.30	
 13.601	-136.825	 10.16398	  1.65657	  8.22171	  1.70920	  8.21264	 -0.37501	 11.15862	705.43701	 23.30	
 13.596	-129.640	 10.15516	  2.01963	  7.75990	  1.35809	  8.63979	 -0.37694	 11.15922	705.42401	 23.30	
