FileType=PCF
NHL=14
Date=08/29/17	09:13:37
Facility=APL
Serial=16328-13
Customer=NASA
NP=6
Mach=0.100000
Calibration=1:1
CalPts=490
TstPts=95
PortNumbering=AP Standard
Units=Torr C m/s kg/m^3 deg mm 
Theta[deg]	Phi[deg]	P1[Torr]	P2[Torr]	P3[Torr]	P4[Torr]	P5[Torr]	P6[Torr]	Pt[Torr]	Ps[Abs,Torr]	Ts[C]	
  0.000	  0.000	  4.97883	  2.63814	  2.54527	  2.56325	  2.65558	  0.03832	  4.97577	705.38702	 23.40	
  1.691	128.401	  4.97660	  2.49935	  2.66164	  2.72978	  2.46601	  0.03401	  4.97213	705.34399	 23.40	
  1.692	 77.194	  4.97328	  2.68139	  2.47322	  2.76004	  2.42874	  0.03374	  4.97120	705.33002	 23.40	
  1.699	 26.182	  4.98467	  2.83127	  2.33626	  2.66876	  2.52302	  0.03158	  4.98368	705.35699	 23.40	
  1.699	-26.182	  4.98708	  2.83693	  2.32181	  2.45316	  2.74001	  0.02920	  4.98447	705.29999	 23.40	
  1.692	-77.194	  4.98807	  2.66570	  2.47492	  2.33275	  2.87799	  0.02791	  4.98497	705.27197	 23.40	
  1.691	-128.401	  4.99282	  2.46945	  2.68810	  2.37802	  2.83401	  0.03097	  4.99167	705.31097	 23.40	
  1.700	180.000	  4.99045	  2.40680	  2.77312	  2.56353	  2.63523	  0.03297	  4.98724	705.28302	 23.40	
  3.400	180.000	  4.97431	  2.12384	  3.01948	  2.51381	  2.61367	  0.02491	  4.97656	705.30603	 23.40	
  3.388	-152.325	  4.99263	  2.17482	  2.96962	  2.29646	  2.86136	  0.02046	  4.99823	705.35400	 23.40	
  3.397	-124.529	  4.97487	  2.31044	  2.79058	  2.12362	  3.03869	  0.01395	  4.98282	705.19299	 23.40	
  3.399	-96.763	  4.97215	  2.52227	  2.55739	  2.04519	  3.12656	  0.01030	  4.98265	705.34198	 23.50	
  3.394	-69.283	  4.97282	  2.76013	  2.32205	  2.07223	  3.09363	  0.01118	  4.98285	705.16498	 23.40	
  3.400	-41.398	  4.98031	  2.97140	  2.13850	  2.19846	  2.95404	  0.01558	  4.98904	705.19098	 23.50	
  3.401	-14.021	  4.97552	  3.08972	  2.03578	  2.39185	  2.73571	  0.01631	  4.98422	705.18799	 23.50	
  3.401	 14.021	  4.97448	  3.09360	  2.03874	  2.63145	  2.49165	  0.01788	  4.98157	705.20697	 23.50	
  3.400	 41.398	  5.00172	  2.99795	  2.14989	  2.86800	  2.30296	  0.02320	  5.00638	705.18103	 23.40	
  3.394	 69.283	  4.98986	  2.78629	  2.33199	  2.99920	  2.18297	  0.01520	  4.99357	705.25403	 23.40	
  3.399	 96.763	  4.99152	  2.55103	  2.56222	  3.03132	  2.16216	  0.01727	  4.99597	705.30200	 23.40	
  3.397	124.529	  4.98028	  2.33459	  2.78689	  2.93742	  2.22810	  0.01861	  4.98269	705.26801	 23.40	
  3.388	152.325	  4.98458	  2.19287	  2.96020	  2.75439	  2.39145	  0.02129	  4.98596	705.17297	 23.40	
  5.099	161.165	  4.97658	  1.89287	  3.23431	  2.74323	  2.34778	  0.00637	  4.99926	705.29999	 23.40	
  5.109	142.013	  4.97661	  2.00574	  3.10249	  2.97579	  2.13540	  0.00379	  5.00207	705.19800	 23.40	
  5.095	123.033	  4.98295	  2.18140	  2.90555	  3.15466	  1.98748	  0.00094	  5.00372	705.22900	 23.40	
  5.105	104.191	  4.96902	  2.39145	  2.65692	  3.25451	  1.88997	 -0.00420	  4.98822	705.33002	 23.40	
  5.093	 85.207	  4.97752	  2.64422	  2.40667	  3.28110	  1.87525	 -0.00397	  4.99798	705.28302	 23.40	
  5.104	 66.290	  4.95763	  2.88197	  2.15970	  3.20423	  1.91547	 -0.00420	  4.98163	705.35400	 23.40	
  5.094	 47.331	  4.95898	  3.10044	  1.96118	  3.05587	  2.04029	 -0.00145	  4.98687	705.42902	 23.40	
  5.089	 28.397	  4.95436	  3.25767	  1.81954	  2.84690	  2.22478	  0.00068	  4.98626	705.45502	 23.40	
  5.096	  9.576	  4.96148	  3.34766	  1.74948	  2.60800	  2.45879	 -0.00234	  4.99623	705.35699	 23.40	
  5.096	 -9.576	  4.96592	  3.34637	  1.74902	  2.35474	  2.71750	 -0.00192	  5.00277	705.40198	 23.40	
  5.089	-28.397	  4.94344	  3.23874	  1.82022	  2.12031	  2.94650	 -0.00305	  4.98176	705.49902	 23.40	
  5.094	-47.331	  4.95248	  3.07966	  1.96528	  1.93919	  3.16182	 -0.00551	  4.99239	705.29102	 23.50	
  5.104	-66.290	  4.94914	  2.85801	  2.16314	  1.81030	  3.31154	 -0.01167	  4.98925	705.42603	 23.50	
  5.093	-85.207	  4.95794	  2.61292	  2.40703	  1.75794	  3.38329	 -0.01377	  4.99786	705.39502	 23.40	
  5.105	-104.191	  4.95964	  2.36332	  2.66603	  1.77629	  3.36350	 -0.01101	  5.00061	705.23798	 23.40	
  5.095	-123.033	  4.96858	  2.15127	  2.90942	  1.87314	  3.25861	 -0.00474	  5.00393	705.50800	 23.40	
  5.109	-142.013	  4.96355	  1.97708	  3.10363	  2.03064	  3.07137	 -0.00016	  4.99638	705.32599	 23.40	
  5.099	-161.165	  4.95613	  1.86956	  3.22652	  2.24090	  2.83410	  0.00767	  4.98214	705.39801	 23.40	
  5.100	180.000	  4.96274	  1.84216	  3.27275	  2.48488	  2.58626	  0.00794	  4.98756	705.43701	 23.40	
  6.800	180.000	  4.93884	  1.55568	  3.52002	  2.44563	  2.54918	 -0.01654	  5.00413	705.42700	 23.40	
  6.796	-166.229	  4.92028	  1.56753	  3.47688	  2.19551	  2.78855	 -0.01618	  4.98845	705.36200	 23.40	
  6.808	-152.311	  4.91544	  1.63906	  3.38256	  1.97189	  3.02710	 -0.02056	  4.98800	705.43201	 23.40	
  6.795	-138.383	  4.91714	  1.76347	  3.23159	  1.77611	  3.24684	 -0.02769	  4.99446	705.42401	 23.40	
  6.792	-124.591	  4.89854	  1.92606	  3.02301	  1.61935	  3.41041	 -0.03318	  4.97905	705.36200	 23.40	
  6.787	-110.754	  4.91228	  2.13859	  2.80058	  1.52039	  3.54187	 -0.03986	  4.99767	705.38702	 23.40	
  6.800	-96.985	  4.89912	  2.36324	  2.54907	  1.46101	  3.59731	 -0.04965	  4.98618	705.25500	 23.40	
  6.800	-83.015	  4.89919	  2.61659	  2.29315	  1.46259	  3.59643	 -0.04812	  4.98576	705.32599	 23.40	
  6.787	-69.246	  4.90605	  2.86627	  2.06113	  1.51802	  3.53784	 -0.04466	  4.99577	705.30902	 23.40	
  6.792	-55.409	  4.89735	  3.09091	  1.84819	  1.61740	  3.41114	 -0.04182	  4.99000	705.23798	 23.40	
  6.795	-41.617	  4.91646	  3.30296	  1.67984	  1.77532	  3.24868	 -0.03977	  5.00710	705.35400	 23.50	
  6.808	-27.689	  4.90942	  3.45389	  1.54464	  1.96557	  3.02259	 -0.03188	  4.99706	705.26099	 23.40	
  6.796	-13.771	  4.90172	  3.54494	  1.46235	  2.18431	  2.77841	 -0.02780	  4.98861	705.42700	 23.50	
  6.800	  0.000	  4.90030	  3.57912	  1.43548	  2.42302	  2.52926	 -0.03117	  4.98119	705.26801	 23.40	
  6.796	 13.771	  4.92422	  3.56753	  1.46537	  2.68522	  2.29516	 -0.02995	  5.00233	705.34802	 23.40	
  6.808	 27.689	  4.90219	  3.46240	  1.53497	  2.91152	  2.06243	 -0.02701	  4.97608	705.45099	 23.40	
  6.795	 41.617	  4.92023	  3.32021	  1.67362	  3.13420	  1.87884	 -0.03187	  4.98815	705.33698	 23.40	
  6.792	 55.409	  4.92324	  3.12881	  1.84826	  3.31196	  1.72914	 -0.03276	  4.98709	705.40100	 23.40	
  6.787	 69.246	  4.94576	  2.91393	  2.06566	  3.44916	  1.63618	 -0.02899	  5.00740	705.28802	 23.40	
  6.800	 83.015	  4.92611	  2.66042	  2.29237	  3.50359	  1.57799	 -0.03367	  4.98513	705.29199	 23.40	
  6.800	 96.985	  4.94560	  2.41820	  2.55378	  3.51698	  1.58643	 -0.03574	  5.00234	705.35101	 23.40	
  6.787	110.754	  4.93958	  2.18515	  2.79744	  3.44863	  1.64097	 -0.03088	  4.99748	705.19800	 23.40	
  6.792	124.591	  4.92918	  1.97385	  3.02426	  3.31873	  1.73997	 -0.02804	  4.98640	705.25201	 23.50	
  6.795	138.383	  4.93564	  1.80311	  3.22912	  3.14754	  1.89030	 -0.02451	  4.99398	705.28497	 23.50	
  6.808	152.311	  4.94575	  1.67152	  3.39210	  2.94164	  2.08016	 -0.01866	  5.00520	705.23602	 23.50	
  6.796	166.229	  4.93027	  1.58444	  3.47668	  2.69350	  2.29766	 -0.01632	  4.99023	705.18799	 23.40	
  8.491	168.704	  4.88238	  1.28353	  3.70985	  2.64759	  2.23607	 -0.04997	  5.00041	705.19897	 23.50	
  8.502	157.493	  4.88235	  1.35209	  3.62888	  2.89543	  2.00270	 -0.04670	  4.99767	705.24902	 23.40	
  8.494	146.194	  4.89020	  1.46758	  3.50185	  3.13225	  1.79845	 -0.05308	  5.00664	705.19000	 23.40	
  8.495	135.039	  4.87929	  1.60963	  3.32028	  3.33309	  1.61446	 -0.06101	  4.99338	705.21301	 23.40	
  8.487	123.723	  4.88715	  1.79473	  3.11154	  3.50916	  1.47248	 -0.06415	  4.99743	705.26801	 23.40	
  8.492	112.575	  4.87688	  2.00088	  2.86957	  3.62789	  1.36453	 -0.06744	  4.98479	705.35901	 23.40	
  8.510	101.220	  4.87492	  2.23186	  2.61404	  3.70819	  1.29640	 -0.07647	  4.98536	705.43201	 23.40	
  8.500	 90.000	  4.88981	  2.48963	  2.36597	  3.74455	  1.27902	 -0.07955	  5.00214	705.16199	 23.40	
  8.510	 78.780	  4.88052	  2.73850	  2.10786	  3.71345	  1.29229	 -0.07310	  4.99618	705.29901	 23.40	
  8.492	 67.425	  4.87825	  2.98857	  1.86934	  3.63144	  1.35458	 -0.06748	  4.99723	705.31097	 23.40	
  8.487	 56.277	  4.87429	  3.21740	  1.65826	  3.50160	  1.45672	 -0.07015	  4.99881	705.27802	 23.40	
  8.495	 44.961	  4.85417	  3.41355	  1.46646	  3.31474	  1.59611	 -0.07118	  4.98384	705.22302	 23.40	
  8.494	 33.806	  4.85556	  3.58062	  1.32465	  3.10824	  1.77810	 -0.06618	  4.98759	705.22900	 23.40	
  8.502	 22.507	  4.86298	  3.71662	  1.21821	  2.88071	  1.99060	 -0.06237	  5.00208	705.10602	 23.40	
  8.491	 11.296	  4.84331	  3.77546	  1.15365	  2.62233	  2.21651	 -0.06830	  4.98705	705.14301	 23.40	
  8.500	  0.000	  4.83812	  3.79564	  1.13110	  2.36221	  2.46875	 -0.06845	  4.98528	705.14301	 23.40	
  8.491	-11.296	  4.83885	  3.76375	  1.15687	  2.11553	  2.72631	 -0.06350	  4.98888	705.24402	 23.40	
  8.502	-22.507	  4.83379	  3.68073	  1.22101	  1.88173	  2.97184	 -0.06211	  4.98880	705.38202	 23.40	
  8.494	-33.806	  4.83021	  3.54741	  1.32832	  1.66801	  3.20879	 -0.06893	  4.98688	705.35101	 23.40	
  8.495	-44.961	  4.83371	  3.37681	  1.47477	  1.48904	  3.41960	 -0.07988	  4.99211	705.33899	 23.40	
  8.487	-56.277	  4.82728	  3.16039	  1.65921	  1.34553	  3.58428	 -0.08291	  4.98487	705.27802	 23.40	
  8.492	-67.425	  4.82473	  2.92625	  1.86882	  1.23961	  3.70829	 -0.08444	  4.98165	705.41602	 23.40	
  8.510	-78.780	  4.82191	  2.67317	  2.10294	  1.17101	  3.78792	 -0.08924	  4.97861	705.26099	 23.50	
  8.500	-90.000	  4.83666	  2.42453	  2.36395	  1.15490	  3.82286	 -0.09203	  4.99087	705.20099	 23.50	
  8.510	-101.220	  4.84256	  2.17733	  2.62326	  1.17660	  3.80281	 -0.08716	  4.99393	705.14301	 23.50	
  8.492	-112.575	  4.83822	  1.94311	  2.87236	  1.24528	  3.71498	 -0.07552	  4.98552	705.19598	 23.50	
  8.487	-123.723	  4.84513	  1.73970	  3.10938	  1.35277	  3.59305	 -0.06752	  4.98899	705.22601	 23.50	
  8.495	-135.039	  4.85285	  1.56363	  3.32387	  1.49718	  3.42928	 -0.06405	  4.99340	705.38800	 23.50	
  8.494	-146.194	  4.85443	  1.42280	  3.49285	  1.67930	  3.21992	 -0.05610	  4.98879	705.27197	 23.50	
  8.502	-157.493	  4.86043	  1.32196	  3.62686	  1.89470	  2.98607	 -0.05050	  4.99064	705.30298	 23.50	
  8.491	-168.704	  4.86476	  1.26829	  3.70206	  2.12934	  2.73764	 -0.05265	  4.98990	705.52698	 23.50	
  8.500	180.000	  4.86093	  1.25029	  3.72329	  2.37555	  2.48030	 -0.05412	  4.98112	705.31403	 23.50	
 10.200	180.000	  4.79097	  0.94792	  3.93687	  2.30831	  2.41314	 -0.09244	  4.98985	705.17798	 23.50	
 10.191	-170.497	  4.79200	  0.95995	  3.91792	  2.05791	  2.67006	 -0.09358	  4.99539	705.07202	 23.50	
 10.210	-161.034	  4.79573	  1.00852	  3.85802	  1.81967	  2.92939	 -0.09103	  5.00605	705.19897	 23.50	
 10.194	-151.526	  4.76541	  1.08793	  3.72387	  1.58360	  3.15971	 -0.08952	  4.97968	705.12903	 23.50	
 10.190	-142.105	  4.76816	  1.20857	  3.57772	  1.38890	  3.38843	 -0.09370	  4.98755	705.20697	 23.50	
 10.215	-132.646	  4.77202	  1.35627	  3.39878	  1.21751	  3.59197	 -0.10005	  4.99820	705.24701	 23.50	
 10.203	-123.092	  4.75126	  1.53508	  3.16793	  1.07216	  3.74744	 -0.10409	  4.98157	705.13599	 23.50	
 10.192	-113.678	  4.76985	  1.74912	  2.94191	  0.96942	  3.89246	 -0.11424	  5.00321	705.25702	 23.50	
 10.208	-104.249	  4.75225	  1.97016	  2.68167	  0.89074	  3.97161	 -0.12774	  4.98925	705.19897	 23.50	
 10.210	-94.801	  4.75113	  2.21506	  2.42344	  0.85316	  4.01781	 -0.13735	  4.99267	705.04401	 23.50	
 10.210	-85.199	  4.73471	  2.46895	  2.15301	  0.84956	  4.00520	 -0.13903	  4.97587	705.26001	 23.50	
 10.208	-75.751	  4.73570	  2.72623	  1.90460	  0.88484	  3.96402	 -0.13263	  4.98158	705.16699	 23.50	
 10.192	-66.322	  4.75877	  2.99171	  1.68287	  0.96406	  3.89096	 -0.12672	  5.00526	705.18103	 23.50	
 10.203	-56.908	  4.73680	  3.21524	  1.46224	  1.06564	  3.74167	 -0.11863	  4.98375	705.15698	 23.50	
 10.215	-47.354	  4.73108	  3.43195	  1.27028	  1.20326	  3.57029	 -0.11851	  4.97929	705.21600	 23.50	
 10.190	-37.895	  4.74029	  3.62296	  1.11814	  1.37509	  3.37792	 -0.11093	  4.98654	705.26801	 23.50	
 10.194	-28.474	  4.75026	  3.78335	  0.99349	  1.57341	  3.15849	 -0.10305	  4.99426	705.29498	 23.50	
 10.210	-18.966	  4.76013	  3.90515	  0.90066	  1.79852	  2.91631	 -0.09494	  4.99996	705.34003	 23.50	
 10.191	 -9.503	  4.75388	  3.96829	  0.84526	  2.03587	  2.65614	 -0.09606	  4.99034	705.30902	 23.50	
 10.200	  0.000	  4.77213	  4.00981	  0.82745	  2.29484	  2.40581	 -0.10446	  5.00506	705.26898	 23.50	
 10.191	  9.503	  4.75882	  3.97952	  0.84097	  2.54897	  2.14193	 -0.10338	  4.98529	705.22601	 23.50	
 10.210	 18.966	  4.77004	  3.92399	  0.89709	  2.80870	  1.90733	 -0.10092	  4.99688	705.13702	 23.50	
 10.194	 28.474	  4.77531	  3.81805	  0.98649	  3.05462	  1.68615	 -0.09961	  4.99074	705.25403	 23.50	
 10.190	 37.895	  4.77884	  3.67299	  1.11187	  3.28340	  1.48647	 -0.10380	  4.99156	705.33698	 23.50	
 10.215	 47.354	  4.78558	  3.49572	  1.26507	  3.49010	  1.31543	 -0.10968	  4.99404	705.21301	 23.50	
 10.203	 56.908	  4.80346	  3.29101	  1.45873	  3.67063	  1.18459	 -0.10876	  5.00670	705.28601	 23.50	
 10.192	 66.322	  4.80252	  3.05290	  1.67356	  3.79606	  1.07965	 -0.10757	  4.99992	705.22101	 23.50	
 10.208	 75.751	  4.80702	  2.80551	  1.90719	  3.89234	  1.00852	 -0.11143	  4.99727	705.24103	 23.50	
 10.210	 85.199	  4.80073	  2.54607	  2.15217	  3.93317	  0.97273	 -0.12098	  4.98856	705.16803	 23.50	
 10.210	 94.801	  4.80435	  2.28618	  2.41859	  3.93351	  0.97554	 -0.12351	  4.98988	705.25702	 23.50	
 10.208	104.249	  4.79860	  2.03894	  2.67467	  3.88578	  1.01406	 -0.11787	  4.98270	705.21301	 23.50	
 10.192	113.678	  4.80897	  1.81345	  2.93269	  3.80223	  1.09044	 -0.11017	  4.99113	705.20398	 23.50	
 10.203	123.092	  4.80480	  1.59954	  3.17130	  3.67265	  1.19083	 -0.10613	  4.98764	705.21301	 23.50	
 10.215	132.646	  4.80595	  1.40923	  3.39355	  3.50588	  1.32776	 -0.10136	  4.99046	705.09698	 23.50	
 10.190	142.105	  4.80935	  1.25810	  3.58201	  3.30700	  1.50087	 -0.09388	  4.99680	705.24103	 23.50	
 10.194	151.526	  4.80862	  1.13066	  3.73577	  3.07832	  1.70136	 -0.08546	  4.99614	705.15900	 23.50	
 10.210	161.034	  4.80194	  1.03364	  3.84874	  2.82944	  1.92154	 -0.08115	  4.99340	705.19897	 23.50	
 10.191	170.497	  4.80146	  0.97556	  3.91803	  2.57475	  2.16045	 -0.08513	  4.99438	705.21301	 23.50	
 11.899	171.783	  4.71962	  0.67246	  4.12073	  2.50161	  2.07972	 -0.12518	  5.00944	705.24103	 23.50	
 11.890	163.610	  4.72085	  0.72378	  4.05880	  2.75818	  1.83705	 -0.11959	  5.00520	705.21600	 23.50	
 11.889	155.445	  4.71190	  0.80150	  3.95050	  3.00234	  1.60662	 -0.11794	  4.99349	705.29901	 23.50	
 11.909	147.299	  4.72403	  0.90968	  3.82530	  3.25104	  1.39489	 -0.12826	  5.00430	705.14697	 23.50	
 11.902	139.148	  4.72726	  1.04945	  3.65624	  3.47219	  1.21097	 -0.13354	  5.00506	705.09100	 23.50	
 11.894	130.867	  4.72655	  1.21941	  3.45275	  3.66494	  1.05424	 -0.13895	  5.00199	705.29401	 23.50	
 11.897	122.732	  4.71809	  1.40069	  3.22474	  3.82556	  0.91568	 -0.14724	  4.99299	705.31097	 23.50	
 11.903	114.597	  4.72101	  1.61098	  2.98599	  3.96289	  0.80723	 -0.15587	  4.99810	705.24701	 23.50	
 11.893	106.346	  4.70481	  1.83765	  2.71614	  4.04462	  0.72850	 -0.16259	  4.97910	705.11401	 23.50	
 11.892	 98.155	  4.70826	  2.08297	  2.45726	  4.10898	  0.68092	 -0.16937	  4.98654	705.24597	 23.50	
 11.900	 90.000	  4.72558	  2.34329	  2.20464	  4.14153	  0.66616	 -0.16823	  5.00548	705.15002	 23.50	
 11.892	 81.845	  4.71269	  2.59736	  1.94232	  4.11114	  0.67807	 -0.16083	  4.99386	705.06702	 23.50	
 11.893	 73.654	  4.71783	  2.85793	  1.69962	  4.05756	  0.72351	 -0.15080	  5.00453	705.19800	 23.50	
 11.903	 65.403	  4.69761	  3.09826	  1.45956	  3.94320	  0.79363	 -0.14585	  4.98729	705.13397	 23.50	
 11.897	 57.268	  4.69872	  3.33745	  1.24912	  3.81270	  0.90091	 -0.14788	  4.99709	705.08600	 23.50	
 11.894	 49.133	  4.70254	  3.55920	  1.06502	  3.64924	  1.03633	 -0.14475	  5.00387	705.10303	 23.50	
 11.902	 40.852	  4.68995	  3.74522	  0.89504	  3.44620	  1.19323	 -0.14270	  4.99854	705.27802	 23.50	
 11.909	 32.701	  4.68265	  3.90584	  0.76107	  3.22444	  1.37870	 -0.14319	  4.99837	705.28003	 23.50	
 11.889	 24.555	  4.66873	  4.02073	  0.65639	  2.97370	  1.58749	 -0.14015	  4.98783	705.21198	 23.50	
 11.890	 16.390	  4.66167	  4.10894	  0.58124	  2.71960	  1.81380	 -0.14297	  4.98399	705.18103	 23.50	
 11.899	  8.217	  4.65511	  4.16246	  0.53516	  2.46391	  2.05368	 -0.14305	  4.98326	705.24701	 23.50	
 11.900	  0.000	  4.65335	  4.17962	  0.51873	  2.20111	  2.31211	 -0.14017	  4.98739	705.26099	 23.50	
 11.899	 -8.217	  4.65407	  4.15823	  0.53671	  1.94876	  2.57292	 -0.13190	  4.99182	705.20502	 23.50	
 11.890	-16.390	  4.65932	  4.09907	  0.58781	  1.71071	  2.83335	 -0.13010	  5.00057	705.19098	 23.50	
 11.889	-24.555	  4.65656	  3.99850	  0.66563	  1.48024	  3.08718	 -0.13285	  5.00227	705.21600	 23.50	
 11.909	-32.701	  4.64309	  3.85513	  0.77045	  1.26854	  3.31778	 -0.14007	  4.99154	705.16699	 23.50	
 11.902	-40.852	  4.65229	  3.69541	  0.90869	  1.08817	  3.54092	 -0.14794	  5.00311	705.16998	 23.50	
 11.894	-49.133	  4.64437	  3.48928	  1.07458	  0.92282	  3.73588	 -0.15429	  5.00000	705.06299	 23.50	
 11.897	-57.268	  4.64150	  3.26615	  1.26090	  0.78778	  3.89845	 -0.15967	  4.99414	705.01300	 23.50	
 11.903	-65.403	  4.64625	  3.02747	  1.47151	  0.68097	  4.03302	 -0.16142	  4.99675	705.26898	 23.50	
 11.893	-73.654	  4.63840	  2.76827	  1.70471	  0.60720	  4.12226	 -0.16924	  4.99041	705.18402	 23.50	
 11.892	-81.845	  4.64324	  2.51055	  1.95127	  0.56362	  4.17985	 -0.17284	  4.99057	705.04102	 23.50	
 11.900	-90.000	  4.65644	  2.25700	  2.21303	  0.55109	  4.20907	 -0.17885	  5.00057	704.98798	 23.50	
 11.892	-98.155	  4.65440	  2.00508	  2.47035	  0.56639	  4.18668	 -0.17567	  4.99616	705.04901	 23.50	
 11.893	-106.346	  4.66286	  1.76576	  2.73401	  0.61304	  4.13518	 -0.16403	  5.00306	705.07397	 23.50	
 11.903	-114.597	  4.66208	  1.53583	  2.98855	  0.68757	  4.03898	 -0.14998	  4.99615	705.11102	 23.50	
 11.897	-122.732	  4.65989	  1.33226	  3.22529	  0.79659	  3.90321	 -0.13873	  4.98923	705.26001	 23.50	
 11.894	-130.867	  4.66232	  1.15393	  3.44204	  0.93446	  3.73479	 -0.13087	  4.98914	705.13898	 23.50	
 11.902	-139.148	  4.68119	  0.99479	  3.65551	  1.10174	  3.55131	 -0.12944	  5.00427	705.16699	 23.50	
 11.909	-147.299	  4.69046	  0.86651	  3.82877	  1.28838	  3.34062	 -0.12861	  5.00919	705.24701	 23.50	
 11.889	-155.445	  4.70229	  0.77149	  3.96541	  1.50247	  3.10748	 -0.12850	  5.01296	705.22302	 23.50	
 11.890	-163.610	  4.69810	  0.70099	  4.05381	  1.73293	  2.84713	 -0.13326	  5.00178	705.24902	 23.50	
 11.899	-171.783	  4.70179	  0.66054	  4.11386	  1.97645	  2.58992	 -0.13455	  4.99948	705.17798	 23.50	
 11.900	180.000	  4.69869	  0.64951	  4.12620	  2.22857	  2.32850	 -0.13113	  4.99069	705.04999	 23.60	
 13.600	180.000	  4.58693	  0.34881	  4.29997	  2.13476	  2.23303	 -0.17138	  4.98987	705.23798	 23.60	
 13.608	-172.853	  4.58577	  0.35504	  4.28650	  1.88373	  2.48708	 -0.17474	  4.99695	705.25201	 23.60	
 13.611	-165.583	  4.58489	  0.38761	  4.23953	  1.63645	  2.75144	 -0.17302	  5.00398	705.06598	 23.60	
 13.601	-158.353	  4.57519	  0.44811	  4.14741	  1.39891	  3.00534	 -0.16991	  5.00193	705.16199	 23.60	
 13.609	-151.210	  4.56281	  0.52975	  4.02198	  1.17915	  3.24351	 -0.16560	  4.99356	705.15997	 23.60	
 13.611	-143.999	  4.55392	  0.63756	  3.87080	  0.98114	  3.46924	 -0.16331	  4.99229	705.01898	 23.50	
 13.601	-136.825	  4.55550	  0.77727	  3.69358	  0.80500	  3.68516	 -0.16341	  4.99788	705.11902	 23.60	
 13.596	-129.640	  4.54866	  0.93679	  3.48674	  0.64872	  3.87269	 -0.16385	  4.99445	705.12000	 23.60	
