FileType=PCF
NHL=14
Date=08/28/17	19:10:19
Facility=APL
Serial=16328-13
Customer=NASA
NP=6
Mach=0.250000
Calibration=1:1
CalPts=490
TstPts=95
PortNumbering=AP Standard
Units=Torr C m/s kg/m^3 deg mm 
Theta[deg]	Phi[deg]	P1[Torr]	P2[Torr]	P3[Torr]	P4[Torr]	P5[Torr]	P6[Torr]	Pt[Torr]	Ps[Abs,Torr]	Ts[C]	
  0.000	  0.000	 30.61622	 16.24350	 15.45523	 15.53265	 16.12359	  0.35185	 30.56672	709.07001	 24.60	
  1.691	128.401	 30.62387	 15.25500	 16.39499	 16.74148	 14.86411	  0.34029	 30.57955	709.09399	 24.60	
  1.692	 77.194	 30.61366	 16.57662	 15.05083	 17.07130	 14.53739	  0.33143	 30.57102	707.11700	 24.60	
  1.699	 26.182	 30.62432	 17.64601	 13.99278	 16.24227	 15.38092	  0.32523	 30.58120	707.12299	 24.60	
  1.699	-26.182	 30.57302	 17.56629	 13.96569	 14.79487	 16.75596	  0.32644	 30.53754	707.77301	 24.60	
  1.692	-77.194	 30.60572	 16.51261	 15.05552	 13.97777	 17.60970	  0.33021	 30.57042	707.45898	 24.60	
  1.691	-128.401	 30.60554	 15.19857	 16.38948	 14.23422	 17.32558	  0.33169	 30.56424	708.60303	 24.60	
  1.700	180.000	 30.57845	 14.59400	 16.99869	 15.45066	 16.06858	  0.33506	 30.53853	709.21198	 24.60	
  3.400	180.000	 30.56580	 12.89294	 18.54608	 15.33687	 15.97248	  0.29754	 30.55874	707.87201	 24.50	
  3.388	-152.325	 30.57436	 13.24870	 18.14930	 13.89667	 17.43855	  0.28316	 30.58440	709.02002	 24.50	
  3.397	-124.529	 30.54196	 14.21855	 17.06919	 12.77133	 18.58171	  0.25978	 30.55683	709.31598	 24.50	
  3.399	-96.763	 30.49796	 15.61936	 15.60891	 12.23021	 19.11469	  0.23936	 30.53887	709.19202	 24.50	
  3.394	-69.283	 30.47489	 17.03704	 14.12638	 12.43630	 18.90983	  0.25406	 30.51562	709.27600	 24.50	
  3.400	-41.398	 30.50247	 18.37761	 12.89669	 13.30562	 18.00231	  0.26994	 30.54952	707.69501	 24.50	
  3.401	-14.021	 30.53811	 19.10698	 12.22336	 14.59007	 16.71702	  0.26549	 30.57359	709.23901	 24.50	
  3.401	 14.021	 30.54043	 19.13498	 12.21387	 16.13352	 15.18502	  0.27950	 30.56488	707.61798	 24.50	
  3.400	 41.398	 30.54032	 18.48238	 12.87650	 17.48452	 13.86169	  0.26872	 30.54973	707.17200	 24.50	
  3.394	 69.283	 30.56848	 17.22850	 14.12197	 18.40365	 12.99939	  0.25218	 30.55876	709.19098	 24.50	
  3.399	 96.763	 30.57001	 15.77356	 15.60217	 18.59359	 12.81995	  0.27200	 30.55734	709.11102	 24.50	
  3.397	124.529	 30.55280	 14.33129	 17.05546	 18.00882	 13.36227	  0.28685	 30.55283	708.12201	 24.50	
  3.388	152.325	 30.56052	 13.29447	 18.12775	 16.82240	 14.49232	  0.29513	 30.55520	708.88800	 24.50	
  5.099	161.165	 30.42439	 11.31177	 19.72021	 16.67173	 14.21042	  0.13378	 30.53535	707.10999	 24.50	
  5.109	142.013	 30.42730	 12.05903	 18.89052	 18.10286	 12.86136	  0.13503	 30.53359	709.17200	 24.50	
  5.095	123.033	 30.45308	 13.34623	 17.66137	 19.21314	 11.85333	  0.08757	 30.56030	707.12097	 24.50	
  5.105	104.191	 30.43156	 14.78530	 16.17766	 19.91110	 11.21978	  0.12040	 30.53290	709.22198	 24.50	
  5.093	 85.207	 30.42500	 16.32749	 14.60243	 20.04173	 11.08119	  0.09266	 30.52819	709.06299	 24.40	
  5.104	 66.290	 30.45762	 17.85013	 13.11415	 19.66143	 11.47104	  0.11189	 30.58698	706.97400	 24.40	
  5.094	 47.331	 30.40343	 19.13538	 11.79088	 18.68770	 12.31968	  0.13450	 30.54504	707.14398	 24.40	
  5.089	 28.397	 30.37700	 20.02024	 10.86522	 17.40281	 13.48823	  0.09194	 30.54426	707.67200	 24.40	
  5.096	  9.576	 30.33908	 20.51708	 10.36932	 15.91034	 14.88606	  0.17732	 30.53594	709.13800	 24.40	
  5.096	 -9.576	 30.34158	 20.48080	 10.38351	 14.31894	 16.47562	  0.12276	 30.54770	709.09698	 24.40	
  5.089	-28.397	 30.28571	 19.92233	 10.86264	 12.88237	 17.89528	  0.15638	 30.51239	708.21301	 24.40	
  5.094	-47.331	 30.34826	 18.99071	 11.83763	 11.70492	 19.23667	  0.05048	 30.57426	707.06702	 24.40	
  5.104	-66.290	 30.29498	 17.63199	 13.10656	 10.85048	 20.16844	  0.02427	 30.52000	708.30798	 24.40	
  5.093	-85.207	 30.30196	 16.13018	 14.60894	 10.45986	 20.57754	  0.09636	 30.52789	709.11902	 24.40	
  5.105	-104.191	 30.32001	 14.56752	 16.17584	 10.55979	 20.44963	  0.01134	 30.53461	709.06201	 24.40	
  5.095	-123.033	 30.32052	 13.12088	 17.63417	 11.16468	 19.80010	  0.07809	 30.50956	707.07202	 24.40	
  5.109	-142.013	 30.35597	 11.86063	 18.87860	 12.20683	 18.68343	  0.07389	 30.52823	707.08698	 24.40	
  5.099	-161.165	 30.40603	 11.25147	 19.73811	 13.61584	 17.26186	  0.13273	 30.55281	709.23102	 24.40	
  5.100	180.000	 30.40028	 11.05791	 20.00805	 15.09110	 15.75051	  0.12626	 30.51848	709.12402	 24.40	
  6.800	180.000	 30.17825	  9.38656	 21.44050	 14.80167	 15.44380	 -0.03830	 30.54567	708.59003	 24.40	
  6.796	-166.229	 30.13870	  9.50403	 21.22758	 13.28860	 16.93258	 -0.05150	 30.53911	709.05402	 24.40	
  6.808	-152.311	 30.09522	  9.89973	 20.62051	 11.84898	 18.40994	 -0.07016	 30.52740	707.45502	 24.40	
  6.795	-138.383	 30.08159	 10.63663	 19.65274	 10.58422	 19.75185	 -0.12285	 30.54027	709.08502	 24.40	
  6.792	-124.591	 30.04997	 11.58902	 18.42213	  9.61042	 20.83027	 -0.12768	 30.53911	709.14600	 24.40	
  6.787	-110.754	 30.03409	 13.04297	 16.98098	  8.98609	 21.56338	 -0.16219	 30.53235	709.14899	 24.30	
  6.800	-96.985	 30.01197	 14.58107	 15.48099	  8.66797	 21.93224	 -0.19082	 30.52601	709.03497	 24.30	
  6.800	-83.015	 30.02489	 16.15066	 13.93263	  8.69886	 21.93764	 -0.20109	 30.54430	709.02002	 24.40	
  6.787	-69.246	 29.98664	 17.60717	 12.43346	  9.03021	 21.52860	 -0.20307	 30.52911	707.09198	 24.30	
  6.792	-55.409	 29.97998	 19.00093	 11.06612	  9.66836	 20.75674	 -0.17428	 30.51760	708.17401	 24.30	
  6.795	-41.617	 30.00709	 20.17060	  9.94391	 10.57775	 19.67374	 -0.11757	 30.54605	709.14203	 24.30	
  6.808	-27.689	 30.01643	 21.13472	  9.12887	 11.83902	 18.31183	 -0.05188	 30.53294	707.01599	 24.30	
  6.796	-13.771	 30.02593	 21.72888	  8.67555	 13.26883	 16.83644	 -0.03750	 30.53934	709.21399	 24.30	
  6.800	  0.000	 30.06506	 21.97675	  8.52435	 14.78568	 15.35717	 -0.04463	 30.55342	709.14398	 24.30	
  6.796	 13.771	 30.05319	 21.79176	  8.65087	 16.30403	 13.83085	 -0.06349	 30.52085	709.21503	 24.30	
  6.808	 27.689	 30.05335	 21.24679	  9.08718	 17.76382	 12.41369	 -0.04984	 30.49300	709.19202	 24.30	
  6.795	 41.617	 30.10847	 20.33866	  9.89932	 19.12174	 11.19532	  0.00373	 30.51454	706.95099	 24.30	
  6.792	 55.409	 30.15016	 19.25230	 11.03325	 20.23084	 10.27987	 -0.09197	 30.53864	709.18402	 24.30	
  6.787	 69.246	 30.18670	 17.91392	 12.41049	 21.02972	  9.66594	 -0.09886	 30.54597	709.07397	 24.30	
  6.800	 83.015	 30.16865	 16.42133	 13.87904	 21.42624	  9.29527	 -0.11006	 30.50704	709.08002	 24.30	
  6.800	 96.985	 30.19031	 14.90069	 15.42416	 21.43608	  9.27987	 -0.11196	 30.51705	709.12701	 24.30	
  6.787	110.754	 30.21620	 13.39821	 16.95273	 21.03480	  9.64195	 -0.09150	 30.53247	709.27899	 24.30	
  6.792	124.591	 30.18655	 11.84223	 18.39018	 20.23855	 10.29791	 -0.08090	 30.51235	709.13202	 24.30	
  6.795	138.383	 30.19895	 10.85839	 19.63784	 19.15902	 11.28942	 -0.03925	 30.52935	709.10999	 24.30	
  6.808	152.311	 30.21134	 10.08764	 20.63371	 17.83702	 12.51812	 -0.01351	 30.54219	709.06299	 24.30	
  6.796	166.229	 30.20119	  9.58846	 21.23030	 16.34341	 13.93227	 -0.00038	 30.54202	707.96997	 24.30	
  8.491	168.704	 29.82683	  7.71244	 22.59447	 16.00861	 13.48963	 -0.21691	 30.53370	709.25598	 24.30	
  8.502	157.493	 29.83143	  8.10618	 22.10107	 17.54709	 12.02597	 -0.21098	 30.52142	709.10498	 24.30	
  8.494	146.194	 29.90608	  8.87208	 21.32459	 19.04079	 10.71756	 -0.22609	 30.57970	707.13202	 24.30	
  8.495	135.039	 29.86762	  9.75963	 20.20801	 20.30379	  9.55422	 -0.25968	 30.53526	709.11102	 24.30	
  8.487	123.723	 29.91242	 10.83116	 18.91709	 21.39957	  8.69998	 -0.29868	 30.57218	708.85400	 24.30	
  8.492	112.575	 29.89133	 12.05484	 17.44266	 22.16555	  8.06598	 -0.33953	 30.54495	709.04901	 24.30	
  8.510	101.220	 29.88018	 13.73053	 15.86587	 22.65139	  7.66545	 -0.36870	 30.53547	709.01501	 24.30	
  8.500	 90.000	 29.86115	 15.31939	 14.32320	 22.79846	  7.54664	 -0.36415	 30.53154	709.17499	 24.30	
  8.510	 78.780	 29.85121	 16.84738	 12.73923	 22.64107	  7.66678	 -0.34966	 30.54065	709.14099	 24.30	
  8.492	 67.425	 29.83405	 18.39750	 11.20720	 22.13315	  8.07410	 -0.32887	 30.54251	709.08698	 24.30	
  8.487	 56.277	 29.79574	 19.70672	  9.84140	 21.33016	  8.64635	 -0.31371	 30.54075	709.13800	 24.30	
  8.495	 44.961	 29.76742	 20.92385	  8.69709	 20.25052	  9.47046	 -0.29246	 30.53968	709.04797	 24.30	
  8.494	 33.806	 29.73595	 21.93836	  7.84617	 18.94977	 10.57878	 -0.26487	 30.54411	709.06299	 24.30	
  8.502	 22.507	 29.71127	 22.67953	  7.20505	 17.49850	 11.91581	 -0.28279	 30.54639	709.11603	 24.30	
  8.491	 11.296	 29.67983	 23.09574	  6.85568	 15.97746	 13.38281	 -0.28047	 30.54642	708.87402	 24.30	
  8.500	  0.000	 29.65126	 23.22745	  6.72301	 14.38728	 14.94814	 -0.27337	 30.54339	709.03400	 24.30	
  8.491	-11.296	 29.61893	 23.01674	  6.85777	 12.81493	 16.48315	 -0.26052	 30.52412	708.97498	 24.30	
  8.502	-22.507	 29.66187	 22.58334	  7.23549	 11.35437	 18.03940	 -0.24713	 30.58782	708.98999	 24.30	
  8.494	-33.806	 29.58819	 21.73965	  7.86407	  9.96493	 19.47895	 -0.29071	 30.53669	709.05103	 24.30	
  8.495	-44.961	 29.57241	 20.61597	  8.72337	  8.85738	 20.76349	 -0.36548	 30.53435	709.04199	 24.30	
  8.487	-56.277	 29.60593	 19.43032	  9.86801	  8.02306	 21.83029	 -0.42934	 30.56550	709.03101	 24.30	
  8.492	-67.425	 29.53961	 17.99223	 11.20077	  7.38884	 22.56837	 -0.46782	 30.49106	708.94098	 24.30	
  8.510	-78.780	 29.61412	 16.50524	 12.75135	  7.00937	 23.13272	 -0.47351	 30.56325	708.98602	 24.20	
  8.500	-90.000	 29.61408	 14.94691	 14.32946	  6.86715	 23.28393	 -0.45992	 30.54428	709.18103	 24.20	
  8.510	-101.220	 29.59759	 13.27144	 15.87618	  6.94904	 23.11562	 -0.45299	 30.51636	709.03900	 24.20	
  8.492	-112.575	 29.61977	 11.68334	 17.43760	  7.36417	 22.63229	 -0.41280	 30.51571	709.01703	 24.20	
  8.487	-123.723	 29.62596	 10.48916	 18.88543	  7.98451	 21.86815	 -0.33561	 30.50242	709.14600	 24.20	
  8.495	-135.039	 29.68227	  9.42622	 20.21894	  8.85477	 20.86569	 -0.28539	 30.54007	709.09003	 24.20	
  8.494	-146.194	 29.70156	  8.60211	 21.28743	  9.97841	 19.58731	 -0.27053	 30.53561	709.10797	 24.20	
  8.502	-157.493	 29.74827	  8.00234	 22.11333	 11.37540	 18.12857	 -0.25305	 30.54813	709.01501	 24.20	
  8.491	-168.704	 29.80075	  7.68315	 22.61241	 12.88104	 16.60894	 -0.24590	 30.55704	709.03998	 24.20	
  8.500	180.000	 29.82862	  7.60662	 22.78801	 14.44281	 15.06794	 -0.23122	 30.55624	709.07001	 24.20	
 10.200	180.000	 29.36052	  5.76267	 24.04187	 13.99204	 14.60744	 -0.49643	 30.55470	709.11298	 24.20	
 10.191	-170.497	 29.31261	  5.81687	 23.88652	 12.39553	 16.15989	 -0.49969	 30.54489	709.07098	 24.20	
 10.210	-161.034	 29.24930	  6.05405	 23.45658	 10.85207	 17.71333	 -0.49002	 30.52359	709.11102	 24.20	
 10.194	-151.526	 29.23323	  6.56482	 22.76486	  9.43469	 19.26071	 -0.48889	 30.54335	709.00598	 24.20	
 10.190	-142.105	 29.22247	  7.27281	 21.84246	  8.22271	 20.66060	 -0.48616	 30.56480	708.96399	 24.20	
 10.215	-132.646	 29.18465	  8.15644	 20.69342	  7.16231	 21.88844	 -0.49783	 30.57104	709.03101	 24.20	
 10.203	-123.092	 29.13433	  9.28056	 19.30938	  6.29994	 22.89419	 -0.54941	 30.53200	709.08801	 24.20	
 10.192	-113.678	 29.12897	 10.51754	 17.83330	  5.66254	 23.68394	 -0.63903	 30.54776	709.17999	 24.20	
 10.208	-104.249	 29.10189	 11.87068	 16.25015	  5.21944	 24.22859	 -0.70495	 30.54864	709.08502	 24.20	
 10.210	-94.801	 29.08016	 13.49219	 14.69555	  4.97870	 24.50599	 -0.73752	 30.55611	709.12500	 24.20	
 10.210	-85.199	 29.04852	 15.19901	 13.04589	  5.00374	 24.48977	 -0.74415	 30.53473	708.94098	 24.20	
 10.208	-75.751	 29.04709	 16.75422	 11.44748	  5.23590	 24.21371	 -0.74510	 30.54869	708.95898	 24.20	
 10.192	-66.322	 29.01609	 18.28255	  9.96564	  5.67485	 23.61499	 -0.73231	 30.51255	709.07001	 24.20	
 10.203	-56.908	 29.02370	 19.65799	  8.66399	  6.29218	 22.81320	 -0.70249	 30.52526	709.12402	 24.20	
 10.215	-47.354	 29.02022	 20.99544	  7.51639	  7.14039	 21.76433	 -0.63869	 30.52798	709.07703	 24.20	
 10.190	-37.895	 29.06081	 22.18789	  6.59663	  8.18960	 20.54581	 -0.55181	 30.55108	709.08502	 24.20	
 10.194	-28.474	 29.10134	 23.13039	  5.84257	  9.38812	 19.17293	 -0.48867	 30.58435	709.02502	 24.20	
 10.210	-18.966	 29.10023	 23.84320	  5.27822	 10.78149	 17.61272	 -0.44988	 30.55604	708.32703	 24.20	
 10.191	 -9.503	 29.07446	 24.23339	  4.97878	 12.29971	 16.02212	 -0.47682	 30.50093	709.17499	 24.20	
 10.200	  0.000	 29.14703	 24.46503	  4.85134	 13.90767	 14.49313	 -0.49605	 30.56685	709.13202	 24.20	
 10.191	  9.503	 29.17724	 24.36047	  4.96276	 15.52069	 12.89334	 -0.51385	 30.56647	709.04797	 24.20	
 10.210	 18.966	 29.18441	 23.98018	  5.24169	 17.07244	 11.35106	 -0.52058	 30.53796	708.94897	 24.20	
 10.194	 28.474	 29.22664	 23.33045	  5.78730	 18.60640	  9.97707	 -0.51360	 30.54601	709.04602	 24.20	
 10.190	 37.895	 29.24440	 22.45335	  6.53326	 20.01628	  8.78975	 -0.52315	 30.52583	708.95502	 24.20	
 10.215	 47.354	 29.29877	 21.39800	  7.46894	 21.30678	  7.76210	 -0.54334	 30.56668	709.01501	 24.20	
 10.203	 56.908	 29.30744	 20.10129	  8.59961	 22.33431	  6.94312	 -0.54454	 30.53233	708.97601	 24.20	
 10.192	 66.322	 29.35279	 18.70582	  9.91732	 23.15051	  6.37858	 -0.56051	 30.52971	708.96399	 24.20	
 10.208	 75.751	 29.38201	 17.20535	 11.39333	 23.74486	  5.93196	 -0.58334	 30.54793	709.04303	 24.20	
 10.210	 85.199	 29.36275	 15.68085	 12.99348	 24.01911	  5.68230	 -0.62814	 30.50620	709.02802	 24.20	
 10.210	 94.801	 29.41707	 14.04885	 14.65880	 24.03728	  5.71530	 -0.65077	 30.53072	709.04602	 24.20	
 10.208	104.249	 29.43820	 12.34324	 16.23171	 23.75488	  5.94388	 -0.63665	 30.53422	709.08502	 24.10	
 10.192	113.678	 29.42840	 10.94620	 17.79551	 23.18257	  6.40366	 -0.59594	 30.51896	709.03900	 24.10	
 10.203	123.092	 29.45149	  9.73609	 19.30170	 22.42297	  7.00904	 -0.56025	 30.55456	709.00897	 24.10	
 10.215	132.646	 29.44824	  8.57241	 20.67784	 21.39578	  7.83187	 -0.50174	 30.56460	709.05103	 24.10	
 10.190	142.105	 29.41978	  7.60918	 21.82360	 20.11757	  8.87546	 -0.45186	 30.54083	709.03198	 24.10	
 10.194	151.526	 29.41833	  6.83561	 22.77211	 18.70607	 10.09504	 -0.42988	 30.55232	708.97198	 24.10	
 10.210	161.034	 29.37136	  6.22797	 23.46582	 17.17134	 11.47738	 -0.42021	 30.52041	709.09399	 24.10	
 10.191	170.497	 29.38274	  5.88261	 23.88215	 15.60829	 13.02598	 -0.43607	 30.54165	708.93799	 24.10	
 11.899	171.783	 28.78839	  4.04035	 25.06880	 15.09160	 12.44451	 -0.68744	 30.53653	708.88000	 24.10	
 11.890	163.610	 28.80992	  4.36737	 24.68794	 16.68063	 10.95052	 -0.62860	 30.53186	709.00598	 24.10	
 11.889	155.445	 28.82306	  4.83615	 24.09303	 18.24571	  9.51242	 -0.65444	 30.53397	708.91803	 24.10	
 11.909	147.299	 28.83263	  5.46523	 23.27754	 19.73387	  8.21817	 -0.65733	 30.54209	709.02600	 24.10	
 11.902	139.148	 28.82427	  6.28983	 22.21823	 21.07884	  7.09590	 -0.70353	 30.50786	709.10498	 24.10	
 11.894	130.867	 28.87108	  7.32847	 20.99169	 22.30073	  6.13949	 -0.72241	 30.53998	709.05701	 24.10	
 11.897	122.732	 28.85853	  8.48862	 19.60468	 23.32156	  5.30404	 -0.79677	 30.51411	709.02002	 24.10	
 11.903	114.597	 28.91162	  9.78821	 18.14730	 24.18616	  4.65858	 -0.87187	 30.57710	708.90503	 24.10	
 11.893	106.346	 28.85204	 11.08901	 16.49652	 24.72849	  4.17530	 -0.92648	 30.51597	709.02301	 24.10	
 11.892	 98.155	 28.86216	 12.61221	 14.89762	 25.10150	  3.91765	 -0.93686	 30.53876	708.95898	 24.10	
 11.900	 90.000	 28.88694	 14.35030	 13.31535	 25.26289	  3.80786	 -0.92059	 30.58122	708.97803	 24.10	
 11.892	 81.845	 28.81893	 15.94940	 11.63785	 25.08047	  3.92608	 -0.88388	 30.53148	708.86200	 24.10	
 11.893	 73.654	 28.82866	 17.46553	 10.11178	 24.72141	  4.24094	 -0.83611	 30.56900	709.00299	 24.10	
 11.903	 65.403	 28.77487	 19.04081	  8.65035	 24.08932	  4.63226	 -0.77318	 30.53880	709.03101	 24.10	
 11.897	 57.268	 28.75956	 20.36734	  7.39315	 23.26479	  5.24562	 -0.75706	 30.56720	708.94501	 24.10	
 11.894	 49.133	 28.73294	 21.73336	  6.24283	 22.22799	  6.06138	 -0.76523	 30.56296	709.03400	 24.10	
 11.902	 40.852	 28.65190	 22.84579	  5.20692	 20.97470	  7.02067	 -0.76543	 30.52352	709.05103	 24.10	
 11.909	 32.701	 28.63863	 23.85271	  4.37387	 19.62776	  8.14486	 -0.75651	 30.56256	709.10199	 24.00	
 11.889	 24.555	 28.62258	 24.61632	  3.76926	 18.13243	  9.41178	 -0.74301	 30.56518	709.02600	 24.10	
 11.890	 16.390	 28.58165	 25.15650	  3.35554	 16.56236	 10.80036	 -0.74979	 30.55000	709.03998	 24.00	
 11.899	  8.217	 28.53576	 25.47329	  3.07490	 14.98672	 12.30196	 -0.75626	 30.53956	709.14203	 24.00	
 11.900	  0.000	 28.51309	 25.56117	  2.97829	 13.34345	 13.92701	 -0.73111	 30.54570	708.88000	 24.00	
 11.899	 -8.217	 28.48742	 25.41880	  3.09312	 11.73208	 15.52378	 -0.69002	 30.54084	708.95898	 24.00	
 11.890	-16.390	 28.46118	 25.02079	  3.37227	 10.22655	 17.09068	 -0.65495	 30.53529	708.95203	 24.10	
 11.889	-24.555	 28.45273	 24.40584	  3.81109	  8.81441	 18.67127	 -0.66727	 30.56553	709.03900	 24.00	
 11.909	-32.701	 28.41924	 23.56211	  4.43947	  7.53531	 20.14055	 -0.72261	 30.55030	708.89301	 24.10	
 11.902	-40.852	 28.42772	 22.53783	  5.28299	  6.42292	 21.48821	 -0.79335	 30.57016	708.91803	 24.10	
 11.894	-49.133	 28.38762	 21.26918	  6.30317	  5.40103	 22.68751	 -0.86496	 30.53877	708.97601	 24.10	
 11.897	-57.268	 28.38861	 19.90290	  7.44367	  4.56218	 23.71494	 -0.92501	 30.55018	708.96301	 24.00	
 11.903	-65.403	 28.38390	 18.48843	  8.70907	  3.93109	 24.53819	 -0.94280	 30.54558	708.91602	 24.00	
 11.893	-73.654	 28.40420	 16.91976	 10.15956	  3.53677	 25.11431	 -0.93389	 30.54052	708.89301	 24.00	
 11.892	-81.845	 28.42079	 15.43995	 11.70634	  3.26459	 25.46783	 -0.95596	 30.53713	708.86499	 24.00	
 11.900	-90.000	 28.40682	 13.70303	 13.32143	  3.12795	 25.58467	 -0.97541	 30.51010	708.86603	 24.00	
 11.892	-98.155	 28.49186	 12.09839	 14.97322	  3.24839	 25.51856	 -0.93736	 30.57328	708.95300	 24.00	
 11.893	-106.346	 28.46914	 10.62663	 16.55450	  3.48279	 25.15969	 -0.91435	 30.53327	708.94897	 24.00	
 11.903	-114.597	 28.50920	  9.27349	 18.16046	  3.92777	 24.61333	 -0.83576	 30.56583	708.86902	 24.00	
 11.897	-122.732	 28.54659	  8.02738	 19.65817	  4.59614	 23.81145	 -0.74865	 30.58197	709.00299	 24.00	
 11.894	-130.867	 28.55747	  6.89973	 21.01582	  5.43510	 22.78792	 -0.68275	 30.55960	709.00000	 24.00	
 11.902	-139.148	 28.58194	  5.92163	 22.22930	  6.45930	 21.57428	 -0.66156	 30.54160	708.84900	 24.00	
 11.909	-147.299	 28.61405	  5.13540	 23.26400	  7.59467	 20.25939	 -0.68588	 30.55456	708.86603	 24.00	
 11.889	-155.445	 28.64821	  4.56770	 24.07321	  8.88335	 18.78899	 -0.71214	 30.53746	708.84900	 24.00	
 11.890	-163.610	 28.67373	  4.15807	 24.67692	 10.33277	 17.20807	 -0.73935	 30.51979	708.89301	 24.00	
 11.899	-171.783	 28.74021	  3.94645	 25.08048	 11.86392	 15.64143	 -0.73876	 30.55329	708.97601	 24.00	
 11.900	180.000	 28.78428	  3.89364	 25.21861	 13.46750	 14.05649	 -0.72665	 30.56695	708.98401	 24.00	
 13.600	180.000	 28.08096	  1.96188	 26.26311	 12.85704	 13.43789	 -0.96810	 30.55783	708.95502	 24.00	
 13.608	-172.853	 28.04342	  1.97974	 26.17467	 11.27564	 15.01787	 -1.00228	 30.56509	708.92499	 24.00	
 13.611	-165.583	 28.01733	  2.12205	 25.85919	  9.73840	 16.62743	 -0.99849	 30.57785	708.96399	 24.00	
 13.601	-158.353	 27.94968	  2.45171	 25.28061	  8.27251	 18.19460	 -0.95769	 30.54197	708.90503	 24.00	
 13.609	-151.210	 27.88838	  3.00235	 24.52938	  6.96292	 19.68246	 -0.91395	 30.52607	708.75500	 24.00	
 13.611	-143.999	 27.89213	  3.71253	 23.62585	  5.75636	 21.11870	 -0.87897	 30.55990	708.91803	 24.00	
 13.601	-136.825	 27.85170	  4.56166	 22.51372	  4.63364	 22.42544	 -0.85010	 30.56722	708.98297	 24.00	
 13.596	-129.640	 27.81352	  5.55654	 21.25851	  3.66993	 23.59121	 -0.88364	 30.54789	708.96399	 24.00	
