FileType=PCF
NHL=14
Date=10/25/18	10:19:27
Facility=APL
Serial=16328-1
Customer=NASA
NP=6
Mach=0.250000
Calibration=1:1
CalPts=490
TstPts=95
PortNumbering=AP Standard
Units=Torr C m/s kg/m^3 deg mm 
Theta[deg]	Phi[deg]	P1[Torr]	P2[Torr]	P3[Torr]	P4[Torr]	P5[Torr]	P6[Torr]	Pt[Torr]	Ps[Abs,Torr]	Ts[C]	
  0.000	  0.000	 29.97849	 15.94759	 15.05808	 15.18538	 15.74859	  0.22846	 29.96294	711.28601	 15.70	
  1.691	128.401	 30.00046	 15.02427	 16.00705	 16.37180	 14.55292	  0.21478	 29.97800	711.25897	 15.70	
  1.692	 77.194	 30.01288	 16.33363	 14.69315	 16.66768	 14.23520	  0.20346	 30.00033	711.27698	 15.70	
  1.699	 26.182	 29.99337	 17.27064	 13.62323	 15.82187	 15.01139	  0.19876	 29.98270	711.24701	 15.80	
  1.699	-26.182	 30.00117	 17.20216	 13.64484	 14.45178	 16.34566	  0.20002	 29.98895	711.27802	 15.80	
  1.692	-77.194	 30.00747	 16.21103	 14.69567	 13.61719	 17.22371	  0.19486	 29.99587	711.21301	 15.80	
  1.691	-128.401	 29.96572	 14.90158	 15.99337	 13.90800	 16.91772	  0.19732	 29.94683	711.30902	 15.80	
  1.700	180.000	 30.00136	 14.38740	 16.58823	 15.17693	 15.75189	  0.21324	 29.97601	711.23102	 15.90	
  3.400	180.000	 30.00278	 12.68635	 18.13398	 15.10570	 15.65703	  0.16788	 30.02529	711.17200	 15.90	
  3.388	-152.325	 29.97860	 13.00677	 17.74255	 13.62612	 17.04935	  0.15650	 30.00526	711.26703	 15.90	
  3.397	-124.529	 29.91005	 13.93507	 16.70401	 12.42942	 18.13980	  0.14939	 29.95420	711.14203	 15.90	
  3.399	-96.763	 29.90870	 15.30922	 15.29643	 11.87075	 18.69234	  0.13503	 29.97405	711.22900	 15.90	
  3.394	-69.283	 29.90252	 16.70273	 13.80515	 12.06951	 18.47171	  0.12503	 29.97508	711.24200	 16.00	
  3.400	-41.398	 29.89849	 17.96183	 12.51866	 12.87871	 17.60176	  0.12468	 29.96753	711.20203	 16.00	
  3.401	-14.021	 29.90706	 18.76574	 11.83925	 14.21694	 16.24894	  0.13310	 29.98343	711.25897	 16.00	
  3.401	 14.021	 29.91411	 18.89417	 11.84566	 15.72351	 14.76779	  0.14035	 29.99007	711.22302	 16.00	
  3.400	 41.398	 29.93546	 18.23892	 12.53883	 17.05351	 13.47819	  0.14841	 29.99029	711.14600	 16.00	
  3.394	 69.283	 29.95089	 16.93047	 13.79650	 17.99080	 12.61834	  0.13215	 29.98036	711.20502	 16.10	
  3.399	 96.763	 29.89889	 15.52942	 15.25387	 18.16687	 12.42043	  0.15759	 29.91603	711.14502	 16.10	
  3.397	124.529	 29.93304	 14.11287	 16.68065	 17.68586	 13.02899	  0.14939	 29.94839	711.12903	 16.10	
  3.388	152.325	 30.01758	 13.13253	 17.76375	 16.60024	 14.19926	  0.15638	 30.03519	711.16199	 16.10	
  5.099	161.165	 29.84146	 11.20359	 19.35102	 16.46782	 13.91061	  0.07439	 29.96993	711.19397	 16.10	
  5.109	142.013	 29.82926	 11.91964	 18.57888	 17.86337	 12.51167	  0.06913	 29.95324	711.19598	 16.10	
  5.095	123.033	 29.81686	 13.12280	 17.31681	 18.94474	 11.47941	  0.04777	 29.95330	711.19397	 16.10	
  5.105	104.191	 29.85277	 14.59829	 15.90440	 19.63957	 10.81892	  0.03396	 30.00568	711.26099	 16.20	
  5.093	 85.207	 29.78237	 16.08947	 14.33875	 19.64868	 10.69339	  0.03509	 29.93734	711.32397	 16.20	
  5.104	 66.290	 29.78509	 17.47857	 12.83688	 19.23460	 11.05149	  0.03558	 29.95609	711.25299	 16.20	
  5.094	 47.331	 29.78031	 18.84924	 11.50900	 18.26495	 11.87070	  0.02248	 29.97205	711.22803	 16.20	
  5.089	 28.397	 29.75782	 19.79762	 10.62892	 16.99820	 13.05877	  0.02634	 29.97558	711.18903	 16.20	
  5.096	  9.576	 29.71283	 20.27282	 10.09747	 15.49857	 14.49421	  0.02716	 29.94351	711.17798	 16.20	
  5.096	 -9.576	 29.72618	 20.20936	 10.10151	 13.91679	 16.08420	 -0.01563	 29.96728	711.09198	 16.20	
  5.089	-28.397	 29.70292	 19.59968	 10.59776	 12.45498	 17.52098	  0.01340	 29.95182	711.10498	 16.20	
  5.094	-47.331	 29.69947	 18.61680	 11.48352	 11.26769	 18.80159	 -0.04524	 29.94988	711.08301	 16.30	
  5.104	-66.290	 29.71666	 17.24316	 12.78096	 10.48387	 19.72407	 -0.05079	 29.96992	711.14203	 16.30	
  5.093	-85.207	 29.72483	 15.80438	 14.31083	 10.13042	 20.15360	 -0.01698	 29.97399	711.12903	 16.30	
  5.105	-104.191	 29.69773	 14.28043	 15.84513	 10.27227	 19.99719	 -0.06666	 29.92272	711.17297	 16.30	
  5.095	-123.033	 29.75978	 12.92133	 17.31003	 10.93764	 19.37116	  0.01577	 29.97382	711.18103	 16.30	
  5.109	-142.013	 29.75590	 11.73287	 18.59888	 11.95513	 18.28646	  0.03159	 29.94171	711.10199	 16.30	
  5.099	-161.165	 29.79860	 11.04248	 19.31981	 13.35824	 16.92666	  0.04270	 29.96127	711.08899	 16.30	
  5.100	180.000	 29.81199	 10.89035	 19.57378	 14.92858	 15.41118	  0.04877	 29.95848	711.05701	 16.30	
  6.800	180.000	 29.60667	  9.24594	 20.97658	 14.70674	 15.11754	 -0.17356	 29.98944	711.08398	 16.30	
  6.796	-166.229	 29.60665	  9.35307	 20.82018	 13.19783	 16.60470	 -0.12624	 30.01051	711.13702	 16.30	
  6.808	-152.311	 29.56450	  9.80473	 20.19384	 11.73009	 18.04126	 -0.19104	 29.98840	711.15302	 16.30	
  6.795	-138.383	 29.54199	 10.48563	 19.31003	 10.50861	 19.32885	 -0.20771	 30.00046	711.04303	 16.40	
  6.792	-124.591	 29.47960	 11.51664	 18.07881	  9.51658	 20.37032	 -0.21953	 29.96550	711.05603	 16.40	
  6.787	-110.754	 29.47827	 12.88534	 16.69901	  8.86934	 21.12245	 -0.24305	 29.99035	711.02899	 16.40	
  6.800	-96.985	 29.42592	 14.33349	 15.17832	  8.43124	 21.48518	 -0.26683	 29.95743	711.12598	 16.40	
  6.800	-83.015	 29.43583	 15.79492	 13.65277	  8.40374	 21.51026	 -0.28652	 29.98046	711.15399	 16.40	
  6.787	-69.246	 29.40833	 17.22047	 12.14289	  8.71838	 21.07186	 -0.31314	 29.94860	711.11499	 16.40	
  6.792	-55.409	 29.42269	 18.60549	 10.83836	  9.34138	 20.32671	 -0.29979	 29.96235	711.13397	 16.40	
  6.795	-41.617	 29.41602	 19.82541	  9.77545	 10.22942	 19.25002	 -0.26698	 29.95353	711.08301	 16.40	
  6.808	-27.689	 29.44065	 20.82738	  8.91605	 11.42684	 17.97400	 -0.23448	 29.98826	711.15399	 16.40	
  6.796	-13.771	 29.43123	 21.40865	  8.46728	 12.84205	 16.48728	 -0.23793	 29.96639	711.14001	 16.40	
  6.800	  0.000	 29.45340	 21.66299	  8.29541	 14.38602	 14.99179	 -0.20421	 29.97995	711.16998	 16.40	
  6.796	 13.771	 29.42771	 21.48602	  8.49941	 15.87819	 13.48244	 -0.18761	 29.93786	711.08301	 16.40	
  6.808	 27.689	 29.46630	 21.00187	  8.97771	 17.36630	 12.04213	 -0.21458	 29.96322	711.11603	 16.40	
  6.795	 41.617	 29.47336	 20.10866	  9.78796	 18.70020	 10.82000	 -0.16666	 29.94756	711.08002	 16.40	
  6.792	 55.409	 29.52238	 18.93843	 10.87436	 19.80087	  9.96871	 -0.21945	 29.96924	711.15802	 16.40	
  6.787	 69.246	 29.55299	 17.59291	 12.16258	 20.58753	  9.34240	 -0.12267	 29.98098	711.12299	 16.40	
  6.800	 83.015	 29.52164	 16.22759	 13.61174	 21.00102	  9.00917	 -0.13489	 29.93523	711.13800	 16.50	
  6.800	 96.985	 29.54128	 14.72536	 15.17305	 21.05586	  9.02586	 -0.22289	 29.94297	711.10199	 16.50	
  6.787	110.754	 29.61903	 13.28064	 16.65794	 20.75500	  9.43405	 -0.20536	 30.00697	711.13702	 16.50	
  6.792	124.591	 29.60741	 11.85586	 18.03168	 20.02403	 10.05824	 -0.22437	 29.99039	711.15399	 16.50	
  6.795	138.383	 29.56863	 10.70582	 19.21633	 18.93684	 10.98103	 -0.16553	 29.94164	711.16400	 16.50	
  6.808	152.311	 29.57250	  9.95152	 20.14418	 17.64960	 12.17729	 -0.20702	 29.94368	711.16400	 16.50	
  6.796	166.229	 29.58335	  9.45207	 20.76526	 16.22291	 13.58381	 -0.14550	 29.95832	711.27399	 16.50	
  8.491	168.704	 29.22857	  7.68727	 22.09880	 15.92703	 13.14916	 -0.40063	 29.95251	711.16199	 16.50	
  8.502	157.493	 29.22409	  8.09152	 21.62307	 17.41326	 11.65779	 -0.40602	 29.94669	711.15302	 16.50	
  8.494	146.194	 29.26223	  8.74853	 20.84736	 18.82155	 10.39054	 -0.40586	 29.98453	711.10797	 16.50	
  8.495	135.039	 29.22313	  9.58401	 19.77678	 20.07823	  9.28298	 -0.42193	 29.95042	711.04102	 16.50	
  8.487	123.723	 29.21488	 10.64626	 18.47739	 21.10160	  8.43590	 -0.46104	 29.95091	711.08899	 16.60	
  8.492	112.575	 29.22067	 11.99546	 17.06166	 21.83788	  7.79791	 -0.48259	 29.96109	711.11603	 16.60	
  8.510	101.220	 29.18318	 13.59213	 15.55723	 22.28503	  7.34174	 -0.48810	 29.94647	711.11499	 16.60	
  8.500	 90.000	 29.14475	 15.12917	 13.96978	 22.39014	  7.17837	 -0.49793	 29.91570	711.08398	 16.60	
  8.510	 78.780	 29.16121	 16.62648	 12.42648	 22.20640	  7.33038	 -0.34558	 29.94262	711.16998	 16.60	
  8.492	 67.425	 29.15523	 18.03908	 10.93138	 21.67511	  7.68555	 -0.31628	 29.95116	711.13397	 16.60	
  8.487	 56.277	 29.12855	 19.40511	  9.67192	 20.84881	  8.32406	 -0.45230	 29.93677	711.11298	 16.60	
  8.495	 44.961	 29.10359	 20.67913	  8.56069	 19.76188	  9.18418	 -0.43831	 29.94930	711.17700	 16.60	
  8.494	 33.806	 29.08127	 21.64529	  7.70141	 18.48400	 10.25292	 -0.45683	 29.94759	711.12598	 16.70	
  8.502	 22.507	 29.07545	 22.36929	  7.04420	 17.05430	 11.55287	 -0.46334	 29.96660	711.18799	 16.70	
  8.491	 11.296	 29.02618	 22.75524	  6.66388	 15.52826	 13.01561	 -0.43162	 29.93043	711.11603	 16.70	
  8.500	  0.000	 29.05471	 22.90632	  6.49595	 13.98578	 14.59977	 -0.44532	 29.97278	711.05298	 16.70	
  8.491	-11.296	 28.99017	 22.66156	  6.62001	 12.38876	 16.11433	 -0.47362	 29.91033	711.06500	 16.70	
  8.502	-22.507	 29.00694	 22.14804	  7.02266	 10.91409	 17.63784	 -0.48817	 29.93591	711.10498	 16.70	
  8.494	-33.806	 28.96694	 21.35614	  7.60439	  9.57947	 19.04864	 -0.49603	 29.91393	711.08099	 16.70	
  8.495	-44.961	 29.01146	 20.33387	  8.52400	  8.51551	 20.33494	 -0.53795	 29.95988	711.09998	 16.70	
  8.487	-56.277	 29.00250	 19.02216	  9.62093	  7.61422	 21.39999	 -0.58633	 29.96216	711.08899	 16.70	
  8.492	-67.425	 28.97110	 17.58876	 10.91234	  7.02639	 22.13660	 -0.59695	 29.92770	711.09198	 16.70	
  8.510	-78.780	 28.94670	 16.08976	 12.38890	  6.62813	 22.65264	 -0.59024	 29.92044	711.10498	 16.70	
  8.500	-90.000	 28.94601	 14.60550	 13.94312	  6.51292	 22.81573	 -0.55579	 29.90964	711.16199	 16.70	
  8.510	-101.220	 28.96491	 13.07880	 15.51340	  6.67528	 22.68276	 -0.54093	 29.92657	711.15601	 16.70	
  8.492	-112.575	 29.03823	 11.61783	 17.07233	  7.15944	 22.21483	 -0.50519	 29.96359	711.08600	 16.70	
  8.487	-123.723	 29.03076	 10.28800	 18.48429	  7.85033	 21.42791	 -0.47918	 29.92769	711.05701	 16.70	
  8.495	-135.039	 29.04276	  9.26037	 19.77478	  8.77298	 20.35252	 -0.45879	 29.91333	711.01801	 16.70	
  8.494	-146.194	 29.11023	  8.49730	 20.81829	  9.93301	 19.12263	 -0.46508	 29.94198	711.07202	 16.80	
  8.502	-157.493	 29.11788	  7.85361	 21.61858	 11.27229	 17.68695	 -0.46835	 29.92567	711.11603	 16.80	
  8.491	-168.704	 29.16762	  7.57052	 22.08907	 12.76357	 16.25412	 -0.44884	 29.93739	711.11499	 16.80	
  8.500	180.000	 29.19174	  7.47231	 22.27187	 14.32763	 14.72627	 -0.42528	 29.94857	711.15302	 16.80	
 10.200	180.000	 28.67930	  5.60501	 23.47895	 13.90539	 14.21563	 -0.68442	 29.90124	711.09399	 16.80	
 10.191	-170.497	 28.69003	  5.72021	 23.36177	 12.35498	 15.79359	 -0.70920	 29.93092	711.02600	 16.80	
 10.210	-161.034	 28.62142	  5.94523	 22.96933	 10.77158	 17.28527	 -0.72543	 29.90873	711.07300	 16.80	
 10.194	-151.526	 28.64766	  6.45790	 22.28580	  9.40371	 18.80323	 -0.72539	 29.96247	711.09998	 16.80	
 10.190	-142.105	 28.56590	  7.10522	 21.33300	  8.09511	 20.16500	 -0.71242	 29.92307	711.09198	 16.80	
 10.215	-132.646	 28.55183	  8.01804	 20.19325	  6.98818	 21.39588	 -0.69598	 29.93758	710.99500	 16.80	
 10.203	-123.092	 28.49304	  9.07143	 18.86158	  6.10500	 22.40863	 -0.71865	 29.92223	711.01001	 16.80	
 10.192	-113.678	 28.48269	 10.28758	 17.43434	  5.45753	 23.18783	 -0.75805	 29.93779	711.06702	 16.80	
 10.208	-104.249	 28.46168	 11.72380	 15.91539	  4.98913	 23.72955	 -0.79309	 29.93488	711.08899	 16.80	
 10.210	-94.801	 28.46877	 13.24900	 14.36185	  4.68850	 24.01937	 -0.82504	 29.95966	711.07501	 16.80	
 10.210	-85.199	 28.42201	 14.80757	 12.70527	  4.64977	 24.00331	 -0.84954	 29.92278	711.08002	 16.80	
 10.208	-75.751	 28.43497	 16.40200	 11.10659	  4.86862	 23.71697	 -0.89059	 29.93146	711.14001	 16.80	
 10.192	-66.322	 28.45563	 17.83384	  9.70154	  5.27347	 23.19729	 -0.90301	 29.94967	711.12402	 16.80	
 10.203	-56.908	 28.45313	 19.24557	  8.43485	  5.84089	 22.39802	 -0.86692	 29.93276	711.03497	 16.80	
 10.215	-47.354	 28.42192	 20.64398	  7.18081	  6.65185	 21.33988	 -0.82196	 29.90319	711.05603	 16.90	
 10.190	-37.895	 28.43957	 21.73092	  6.27991	  7.72048	 20.08179	 -0.76143	 29.89693	711.04901	 16.90	
 10.194	-28.474	 28.47677	 22.71834	  5.56194	  8.95545	 18.75351	 -0.73503	 29.93578	711.03198	 16.90	
 10.210	-18.966	 28.45886	 23.41601	  5.02977	 10.28400	 17.22133	 -0.75126	 29.90355	710.96802	 16.90	
 10.191	 -9.503	 28.52167	 23.88227	  4.74788	 11.85211	 15.67772	 -0.73617	 29.94438	710.96399	 16.90	
 10.200	  0.000	 28.53285	 24.08082	  4.64086	 13.45189	 14.09246	 -0.70473	 29.95407	711.04498	 16.90	
 10.191	  9.503	 28.48021	 23.95218	  4.74175	 15.01818	 12.48753	 -0.70767	 29.89150	711.09198	 16.90	
 10.210	 18.966	 28.55033	 23.63737	  5.08816	 16.57738	 11.06136	 -0.74187	 29.94542	710.96802	 16.90	
 10.194	 28.474	 28.57453	 23.02574	  5.59050	 18.09628	  9.71584	 -0.74927	 29.95271	710.98401	 16.90	
 10.190	 37.895	 28.53717	 22.15966	  6.34611	 19.44339	  8.51511	 -0.72462	 29.89751	711.02100	 16.90	
 10.215	 47.354	 28.55837	 21.09060	  7.27627	 20.71373	  7.47785	 -0.69360	 29.88993	711.07300	 16.90	
 10.203	 56.908	 28.60246	 19.81986	  8.40621	 21.80440	  6.62242	 -0.70773	 29.91223	710.97601	 16.90	
 10.192	 66.322	 28.64310	 18.42145	  9.66207	 22.64713	  6.00908	 -0.74130	 29.92773	711.00000	 16.90	
 10.208	 75.751	 28.67740	 16.95974	 11.08853	 23.24918	  5.62847	 -0.65477	 29.94656	710.88397	 17.00	
 10.210	 85.199	 28.69407	 15.53117	 12.66170	 23.58669	  5.40146	 -0.78421	 29.95324	710.88098	 17.00	
 10.210	 94.801	 28.63270	 13.90104	 14.24161	 23.58158	  5.36642	 -0.79862	 29.88465	710.96503	 17.00	
 10.208	104.249	 28.68438	 12.33644	 15.82634	 23.38194	  5.63959	 -0.79482	 29.92263	710.96198	 17.00	
 10.192	113.678	 28.68259	 10.78030	 17.35254	 22.84561	  6.12727	 -0.79607	 29.90546	710.96802	 17.00	
 10.203	123.092	 28.69737	  9.58130	 18.77462	 22.10100	  6.71695	 -0.75602	 29.90645	710.92902	 17.00	
 10.215	132.646	 28.70312	  8.43722	 20.12221	 21.10372	  7.53562	 -0.71380	 29.90403	710.98102	 17.10	
 10.190	142.105	 28.72295	  7.45391	 21.30473	 19.88061	  8.59965	 -0.68595	 29.92212	710.87500	 17.10	
 10.194	151.526	 28.68737	  6.70927	 22.21343	 18.47993	  9.76021	 -0.68861	 29.88360	710.98401	 17.10	
 10.210	161.034	 28.72185	  6.12577	 22.93204	 17.04818	 11.12935	 -0.70613	 29.92155	710.90601	 17.10	
 10.191	170.497	 28.70859	  5.75470	 23.34859	 15.50716	 12.64265	 -0.72246	 29.92402	710.92401	 17.10	
 11.899	171.783	 28.11442	  3.88441	 24.45073	 15.04641	 12.10120	 -0.96627	 29.88419	710.92401	 17.10	
 11.890	163.610	 28.11772	  4.19424	 24.10692	 16.60680	 10.56338	 -0.94198	 29.88347	710.86499	 17.10	
 11.889	155.445	 28.14944	  4.70772	 23.54312	 18.10361	  9.18218	 -0.91693	 29.91774	710.91901	 17.20	
 11.909	147.299	 28.13936	  5.34490	 22.72055	 19.53189	  7.90367	 -0.89429	 29.90175	710.97601	 17.20	
 11.902	139.148	 28.12877	  6.18547	 21.68230	 20.88060	  6.74982	 -0.90482	 29.90199	710.88702	 17.20	
 11.894	130.867	 28.09819	  7.18830	 20.47584	 22.03135	  5.75372	 -0.94922	 29.88432	710.85199	 17.20	
 11.897	122.732	 28.10258	  8.38715	 19.08229	 23.00391	  5.01362	 -1.00998	 29.88732	710.83600	 17.20	
 11.903	114.597	 28.10964	  9.62052	 17.65676	 23.80763	  4.37495	 -1.07342	 29.91331	710.82800	 17.20	
 11.893	106.346	 28.09507	 10.98461	 16.09220	 24.33470	  3.96128	 -1.08289	 29.89236	710.85101	 17.20	
 11.892	 98.155	 28.08068	 12.55184	 14.51584	 24.65158	  3.61240	 -1.08099	 29.89560	710.90802	 17.20	
 11.900	 90.000	 28.06734	 14.18912	 12.89253	 24.71797	  3.50516	 -1.06625	 29.89457	710.90302	 17.20	
 11.892	 81.845	 28.08457	 15.77141	 11.29173	 24.55170	  3.64406	 -1.05133	 29.90558	710.88702	 17.20	
 11.893	 73.654	 28.06183	 17.20127	  9.81954	 24.16960	  3.85028	 -1.02059	 29.90879	710.87598	 17.20	
 11.903	 65.403	 28.03350	 18.68034	  8.45187	 23.52471	  4.29901	 -0.98306	 29.89778	710.83301	 17.20	
 11.897	 57.268	 28.00236	 20.09999	  7.17587	 22.66497	  4.95473	 -0.94378	 29.88555	710.84302	 17.20	
 11.894	 49.133	 28.00626	 21.41601	  6.04216	 21.65397	  5.78275	 -0.93027	 29.92222	710.83600	 17.20	
 11.902	 40.852	 27.94019	 22.52145	  5.06371	 20.36066	  6.78324	 -0.96503	 29.87387	710.87500	 17.20	
 11.909	 32.701	 27.93313	 23.48293	  4.26951	 19.00613	  7.90819	 -1.02344	 29.89398	710.94897	 17.20	
 11.889	 24.555	 27.92974	 24.22098	  3.63857	 17.54032	  9.19115	 -1.03340	 29.90614	710.87299	 17.20	
 11.890	 16.390	 27.93143	 24.76307	  3.21576	 16.04253	 10.52308	 -1.01936	 29.93340	710.87598	 17.20	
 11.899	  8.217	 27.88152	 25.04525	  2.91472	 14.45268	 12.01611	 -0.98266	 29.89501	710.88702	 17.20	
 11.900	  0.000	 27.87418	 25.09455	  2.84456	 12.85744	 13.54971	 -0.98504	 29.88940	710.85699	 17.20	
 11.899	 -8.217	 27.89595	 24.96852	  2.91954	 11.23144	 15.16926	 -0.98685	 29.92138	710.92102	 17.20	
 11.890	-16.390	 27.85020	 24.54372	  3.15231	  9.71998	 16.72734	 -0.99246	 29.89145	710.88397	 17.20	
 11.889	-24.555	 27.85494	 23.94972	  3.55810	  8.35952	 18.26462	 -0.99112	 29.91739	710.86298	 17.20	
 11.909	-32.701	 27.78580	 23.08460	  4.10933	  7.04084	 19.70579	 -0.98806	 29.87663	710.86499	 17.20	
 11.902	-40.852	 27.73991	 22.03681	  4.92407	  5.86065	 21.00578	 -1.01226	 29.83563	710.86298	 17.20	
 11.894	-49.133	 27.75718	 20.86211	  5.92109	  4.86880	 22.23302	 -1.08361	 29.87137	710.84003	 17.20	
 11.897	-57.268	 27.81614	 19.51841	  7.14422	  4.12377	 23.25920	 -1.13824	 29.93109	710.84399	 17.20	
 11.903	-65.403	 27.80143	 18.07790	  8.40684	  3.49379	 24.06778	 -1.16786	 29.92789	710.88202	 17.20	
 11.893	-73.654	 27.73536	 16.55514	  9.83482	  3.10548	 24.59721	 -1.15683	 29.86827	710.82001	 17.20	
 11.892	-81.845	 27.74124	 15.03823	 11.30244	  2.83658	 24.95976	 -1.13703	 29.87403	710.87299	 17.20	
 11.900	-90.000	 27.75077	 13.45269	 12.90090	  2.75056	 25.10460	 -1.11960	 29.88924	710.84003	 17.20	
 11.892	-98.155	 27.75993	 11.85910	 14.54341	  2.91886	 24.99696	 -1.08586	 29.87659	710.82703	 17.30	
 11.893	-106.346	 27.77122	 10.37045	 16.15694	  3.19018	 24.64271	 -1.05983	 29.88901	710.84003	 17.30	
 11.903	-114.597	 27.81303	  9.07021	 17.63812	  3.72520	 24.07073	 -1.01229	 29.89804	710.92902	 17.30	
 11.897	-122.732	 27.81083	  7.85322	 19.07515	  4.39283	 23.26616	 -0.97742	 29.86071	710.79199	 17.30	
 11.894	-130.867	 27.87484	  6.72758	 20.46362	  5.23202	 22.30582	 -0.95723	 29.90165	710.92102	 17.30	
 11.902	-139.148	 27.89782	  5.76003	 21.67180	  6.28276	 21.11613	 -0.97848	 29.88490	710.84399	 17.30	
 11.909	-147.299	 27.90927	  4.99007	 22.68193	  7.47951	 19.77680	 -1.01478	 29.86256	710.78198	 17.30	
 11.889	-155.445	 27.96358	  4.42114	 23.50425	  8.84118	 18.32839	 -1.04356	 29.87660	710.90601	 17.30	
 11.890	-163.610	 27.98209	  3.96361	 24.09711	 10.24846	 16.81967	 -1.04169	 29.86352	710.87299	 17.30	
 11.899	-171.783	 28.05021	  3.77519	 24.45560	 11.82627	 15.30288	 -1.02236	 29.88637	710.77802	 17.30	
 11.900	180.000	 28.07394	  3.68046	 24.59846	 13.41900	 13.68093	 -1.00898	 29.89260	711.10999	 17.30	
 13.600	180.000	 27.35891	  1.75634	 25.62903	 12.85076	 13.02798	 -1.20970	 29.86908	710.84399	 17.30	
 13.608	-172.853	 27.33345	  1.75590	 25.51498	 11.23721	 14.68336	 -1.22785	 29.87126	711.76801	 17.30	
 13.611	-165.583	 27.30144	  1.94427	 25.20734	  9.71264	 16.23216	 -1.24551	 29.87522	710.81897	 17.40	
 13.601	-158.353	 27.29695	  2.37932	 24.66734	  8.27369	 17.79816	 -1.25671	 29.89569	710.87299	 17.40	
 13.609	-151.210	 27.22321	  2.91541	 23.92259	  6.89905	 19.25821	 -1.24014	 29.86223	710.83502	 17.40	
 13.611	-143.999	 27.17986	  3.56477	 23.00274	  5.60560	 20.67580	 -1.19842	 29.86527	710.90002	 17.40	
 13.601	-136.825	 27.15730	  4.41314	 21.94111	  4.47143	 21.96387	 -1.14757	 29.88676	711.70099	 17.40	
 13.596	-129.640	 27.09126	  5.42863	 20.68473	  3.49009	 23.07462	 -1.14191	 29.85543	711.02600	 17.40	
