FileType=PCF
NHL=14
Date=10/23/18	12:19:19
Facility=APL
Serial=16328-1
Customer=NASA
NP=6
Mach=0.150000
Calibration=1:1
CalPts=490
TstPts=95
PortNumbering=AP Standard
Units=Torr C m/s kg/m^3 deg mm 
Theta[deg]	Phi[deg]	P1[Torr]	P2[Torr]	P3[Torr]	P4[Torr]	P5[Torr]	P6[Torr]	Pt[Torr]	Ps[Abs,Torr]	Ts[C]	
  0.000	  0.000	 11.08065	  5.83330	  5.63740	  5.62727	  5.84305	  0.08924	 11.06092	709.45099	 29.30	
  1.691	128.401	 11.05630	  5.48757	  5.94721	  6.03720	  5.40443	  0.08622	 11.03998	709.52899	 30.00	
  1.692	 77.194	 11.09405	  5.97002	  5.50370	  6.16720	  5.30351	  0.08438	 11.07722	709.40399	 30.20	
  1.699	 26.182	 11.08407	  6.32966	  5.12637	  5.85303	  5.59526	  0.07960	 11.06677	709.42603	 30.30	
  1.699	-26.182	 11.08508	  6.31423	  5.13675	  5.36047	  6.07506	  0.07886	 11.06685	709.43701	 30.50	
  1.692	-77.194	 11.09401	  5.94075	  5.50437	  5.08185	  6.37807	  0.07684	 11.07525	709.46698	 30.60	
  1.691	-128.401	 11.08293	  5.48290	  5.96499	  5.17919	  6.27695	  0.07830	 11.06819	709.53601	 30.70	
  1.700	180.000	 11.07951	  5.28490	  6.17666	  5.62013	  5.84025	  0.08189	 11.06443	709.43701	 30.70	
  3.400	180.000	 11.05210	  4.68756	  6.71011	  5.55684	  5.79691	  0.06143	 11.04811	709.53101	 30.90	
  3.388	-152.325	 11.07604	  4.80663	  6.58936	  5.06492	  6.32357	  0.05835	 11.07177	709.58002	 30.90	
  3.397	-124.529	 11.03645	  5.10445	  6.20715	  4.66293	  6.69884	  0.04015	 11.03764	709.48999	 31.00	
  3.399	-96.763	 11.05099	  5.60477	  5.68118	  4.47356	  6.91264	  0.03291	 11.05482	709.55200	 31.10	
  3.394	-69.283	 11.05540	  6.12672	  5.17191	  4.52353	  6.84147	  0.03489	 11.06057	709.55603	 31.20	
  3.400	-41.398	 11.03702	  6.58794	  4.72720	  4.80613	  6.50983	  0.03350	 11.04485	709.54797	 31.30	
  3.401	-14.021	 11.05599	  6.86240	  4.50619	  5.25438	  6.04393	  0.04141	 11.06094	709.47998	 31.40	
  3.401	 14.021	 11.07166	  6.88769	  4.52100	  5.83079	  5.50010	  0.04840	 11.07689	709.58801	 31.50	
  3.400	 41.398	 11.03467	  6.64100	  4.72528	  6.28532	  5.04580	  0.06035	 11.03746	709.59003	 31.50	
  3.394	 69.283	 11.05008	  6.19937	  5.15693	  6.61452	  4.77379	  0.06021	 11.05063	709.52502	 31.50	
  3.399	 96.763	 11.04435	  5.65996	  5.68723	  6.68341	  4.71388	  0.05866	 11.03796	709.49103	 31.50	
  3.397	124.529	 11.05576	  5.18221	  6.19085	  6.49833	  4.90069	  0.05308	 11.04895	709.48297	 31.60	
  3.388	152.325	 11.06001	  4.83003	  6.57282	  6.08387	  5.29604	  0.05518	 11.05266	709.60101	 31.60	
  5.099	161.165	 11.00442	  4.15849	  7.13942	  6.03891	  5.15920	  0.01509	 11.03984	709.49902	 31.70	
  5.109	142.013	 10.99229	  4.39957	  6.85148	  6.55405	  4.66689	  0.01025	 11.02774	709.58002	 31.80	
  5.095	123.033	 11.00543	  4.79605	  6.41606	  6.96076	  4.32395	  0.01110	 11.04024	709.61700	 31.80	
  5.105	104.191	 11.01521	  5.30198	  5.89141	  7.19879	  4.12364	  0.00846	 11.05089	709.56897	 31.90	
  5.093	 85.207	 11.01024	  5.85170	  5.32792	  7.24214	  4.06832	  0.00714	 11.05065	709.56097	 32.00	
  5.104	 66.290	 10.99897	  6.40492	  4.79273	  7.07617	  4.17819	  0.00939	 11.03958	709.60901	 32.00	
  5.094	 47.331	 11.00118	  6.89328	  4.33790	  6.74268	  4.46808	  0.00976	 11.04825	709.50702	 32.00	
  5.089	 28.397	 10.97741	  7.23702	  4.01468	  6.25690	  4.87388	  0.00308	 11.03148	709.52899	 32.10	
  5.096	  9.576	 10.97731	  7.41812	  3.84619	  5.71753	  5.37866	  0.00200	 11.03593	709.58197	 32.10	
  5.096	 -9.576	 10.95094	  7.38704	  3.84015	  5.12620	  5.94006	 -0.00464	 11.01248	709.67200	 32.20	
  5.089	-28.397	 10.97151	  7.20185	  4.00300	  4.61742	  6.49014	  0.01114	 11.04018	709.55499	 32.20	
  5.094	-47.331	 10.96347	  6.81980	  4.32302	  4.20481	  6.94703	 -0.01598	 11.03515	709.57098	 32.30	
  5.104	-66.290	 10.96564	  6.32888	  4.76994	  3.92792	  7.28179	 -0.01616	 11.03984	709.54401	 32.40	
  5.093	-85.207	 10.97995	  5.77687	  5.31502	  3.81734	  7.44056	 -0.01444	 11.05125	709.60999	 32.40	
  5.105	-104.191	 10.95594	  5.21852	  5.85868	  3.85785	  7.37834	 -0.01084	 11.02623	709.51300	 32.40	
  5.095	-123.033	 10.97261	  4.73261	  6.40124	  4.08204	  7.15557	 -0.00784	 11.03447	709.55298	 32.40	
  5.109	-142.013	 10.97574	  4.35817	  6.83636	  4.42949	  6.76865	 -0.00448	 11.02962	709.54700	 32.50	
  5.099	-161.165	 10.97732	  4.12085	  7.12270	  4.92500	  6.24805	 -0.00078	 11.02475	709.51703	 32.50	
  5.100	180.000	 10.98876	  4.05687	  7.22713	  5.47253	  5.69554	  0.00467	 11.02901	709.52100	 32.50	
  6.800	180.000	 10.90538	  3.40830	  7.74314	  5.37746	  5.59205	 -0.05964	 11.03218	709.46100	 32.50	
  6.796	-166.229	 10.93205	  3.45196	  7.70247	  4.84505	  6.16166	 -0.06713	 11.06782	709.54700	 32.60	
  6.808	-152.311	 10.86766	  3.58674	  7.44930	  4.30518	  6.66834	 -0.07424	 11.01359	709.50897	 32.60	
  6.795	-138.383	 10.87005	  3.87107	  7.11239	  3.86939	  7.14323	 -0.07028	 11.02194	709.57703	 32.60	
  6.792	-124.591	 10.86083	  4.23846	  6.68076	  3.52766	  7.51864	 -0.07511	 11.02372	709.62500	 32.70	
  6.787	-110.754	 10.85201	  4.70455	  6.16011	  3.28008	  7.78747	 -0.08593	 11.02251	709.60101	 32.70	
  6.800	-96.985	 10.83492	  5.21627	  5.60214	  3.15197	  7.90979	 -0.08926	 11.00584	709.59497	 32.70	
  6.800	-83.015	 10.85312	  5.77697	  5.05206	  3.14320	  7.92961	 -0.09344	 11.03011	709.52802	 32.70	
  6.787	-69.246	 10.83696	  6.31370	  4.52467	  3.26029	  7.76542	 -0.10250	 11.01470	709.46100	 32.80	
  6.792	-55.409	 10.84319	  6.82901	  4.05822	  3.48958	  7.49155	 -0.09792	 11.01969	709.57703	 32.80	
  6.795	-41.617	 10.86588	  7.28642	  3.68120	  3.81965	  7.12468	 -0.08340	 11.04039	709.58197	 32.90	
  6.808	-27.689	 10.86493	  7.63436	  3.38767	  4.24887	  6.64307	 -0.08050	 11.03620	709.54700	 32.90	
  6.796	-13.771	 10.87469	  7.85996	  3.21584	  4.76585	  6.10490	 -0.08084	 11.04425	709.60101	 33.00	
  6.800	  0.000	 10.89254	  7.95706	  3.16345	  5.31371	  5.56467	 -0.06965	 11.05782	709.54797	 33.00	
  6.796	 13.771	 10.86616	  7.87852	  3.21584	  5.85909	  5.01148	 -0.06752	 11.02960	709.53101	 33.00	
  6.808	 27.689	 10.87024	  7.68852	  3.38764	  6.40763	  4.50293	 -0.07224	 11.02834	709.60602	 32.90	
  6.795	 41.617	 10.86234	  7.35007	  3.67859	  6.88910	  4.07030	 -0.06333	 11.01060	709.63702	 32.90	
  6.792	 55.409	 10.91415	  6.95493	  4.08616	  7.31181	  3.75318	 -0.06138	 11.05387	709.62598	 33.00	
  6.787	 69.246	 10.89353	  6.43817	  4.54550	  7.57107	  3.53529	 -0.06342	 11.02326	709.62201	 33.00	
  6.800	 83.015	 10.88848	  5.89294	  5.07068	  7.72359	  3.41098	 -0.06489	 11.01691	709.53601	 33.10	
  6.800	 96.985	 10.90555	  5.33387	  5.64514	  7.74582	  3.42048	 -0.06379	 11.03029	709.51501	 33.10	
  6.787	110.754	 10.91330	  4.82639	  6.18267	  7.60772	  3.55378	 -0.06646	 11.03299	709.52502	 33.10	
  6.792	124.591	 10.90313	  4.34054	  6.69572	  7.33967	  3.77346	 -0.06064	 11.02350	709.52100	 33.20	
  6.795	138.383	 10.88020	  3.94981	  7.11200	  6.93990	  4.10284	 -0.05426	 10.99759	709.56097	 33.20	
  6.808	152.311	 10.92287	  3.66758	  7.48105	  6.47924	  4.55599	 -0.05661	 11.03863	709.53101	 33.20	
  6.796	166.229	 10.90902	  3.48223	  7.67454	  5.94160	  5.05205	 -0.05808	 11.02629	709.67700	 33.30	
  8.491	168.704	 10.79128	  2.78909	  8.19375	  5.84127	  4.89924	 -0.14477	 11.04489	709.66101	 33.30	
  8.502	157.493	 10.77314	  2.93795	  8.00634	  6.38438	  4.37422	 -0.13827	 11.01944	709.49902	 33.30	
  8.494	146.194	 10.77838	  3.19438	  7.71764	  6.91091	  3.90129	 -0.13163	 11.01938	709.56299	 33.20	
  8.495	135.039	 10.79106	  3.52243	  7.35342	  7.37165	  3.51152	 -0.13456	 11.03556	709.51300	 33.30	
  8.487	123.723	 10.77954	  3.92677	  6.88719	  7.74712	  3.17877	 -0.14641	 11.02475	709.58801	 33.30	
  8.492	112.575	 10.78462	  4.41438	  6.36269	  8.02969	  2.94783	 -0.15546	 11.02947	709.43402	 33.30	
  8.510	101.220	 10.76275	  4.93538	  5.78710	  8.19486	  2.78139	 -0.15659	 11.01415	709.54797	 33.30	
  8.500	 90.000	 10.78692	  5.49831	  5.23741	  8.25984	  2.73570	 -0.14925	 11.03916	709.45801	 33.30	
  8.510	 78.780	 10.78847	  6.07534	  4.67089	  8.19001	  2.77915	 -0.15002	 11.04310	709.47699	 33.30	
  8.492	 67.425	 10.78835	  6.63239	  4.13840	  8.00257	  2.92475	 -0.14745	 11.04731	709.54797	 33.30	
  8.487	 56.277	 10.77437	  7.13934	  3.65757	  7.70611	  3.14597	 -0.13070	 11.04327	709.55298	 33.30	
  8.495	 44.961	 10.76463	  7.59064	  3.24652	  7.30684	  3.46532	 -0.13409	 11.04045	709.64398	 33.30	
  8.494	 33.806	 10.74910	  7.94234	  2.92138	  6.83700	  3.86355	 -0.14891	 11.03159	709.52100	 33.30	
  8.502	 22.507	 10.68353	  8.18273	  2.65201	  6.26982	  4.31150	 -0.14872	 10.97861	709.56097	 33.30	
  8.491	 11.296	 10.69647	  8.35388	  2.51297	  5.72197	  4.83581	 -0.14382	 10.99491	709.53998	 33.70	
  8.500	  0.000	 10.70220	  8.41514	  2.45405	  5.15484	  5.39169	 -0.14735	 11.00792	709.46698	 33.70	
  8.491	-11.296	 10.69767	  8.33637	  2.50330	  4.59223	  5.96005	 -0.15881	 11.00727	709.53302	 33.80	
  8.502	-22.507	 10.70460	  8.16128	  2.64176	  4.06934	  6.51628	 -0.16130	 11.01944	709.57898	 33.80	
  8.494	-33.806	 10.71506	  7.86745	  2.89660	  3.58983	  7.05394	 -0.15820	 11.03285	709.56299	 33.80	
  8.495	-44.961	 10.67403	  7.44894	  3.20980	  3.17460	  7.48917	 -0.17225	 10.99530	709.54700	 33.80	
  8.487	-56.277	 10.68115	  6.98756	  3.61563	  2.86546	  7.86868	 -0.19452	 11.00654	709.56799	 33.80	
  8.492	-67.425	 10.66116	  6.46219	  4.07809	  2.61728	  8.14713	 -0.19849	 10.98931	709.51300	 33.80	
  8.510	-78.780	 10.66497	  5.90030	  4.61059	  2.46702	  8.34324	 -0.19376	 11.00004	709.43597	 33.80	
  8.500	-90.000	 10.66814	  5.34312	  5.16251	  2.43655	  8.39965	 -0.18078	 10.99969	709.53900	 33.90	
  8.510	-101.220	 10.66316	  4.78608	  5.72510	  2.47514	  8.35590	 -0.17620	 10.99371	709.48499	 33.90	
  8.492	-112.575	 10.66245	  4.25087	  6.29614	  2.64158	  8.16906	 -0.16900	 10.98451	709.48999	 33.90	
  8.487	-123.723	 10.67140	  3.79884	  6.81331	  2.90460	  7.88153	 -0.15446	 10.98214	709.39600	 33.90	
  8.495	-135.039	 10.67379	  3.40125	  7.27698	  3.23119	  7.50466	 -0.14624	 10.97284	709.47400	 34.00	
  8.494	-146.194	 10.71195	  3.10314	  7.67319	  3.65555	  7.07640	 -0.15498	 11.00157	709.44202	 34.00	
  8.502	-157.493	 10.70460	  2.86458	  7.96148	  4.13655	  6.54277	 -0.16085	 10.98136	709.47699	 34.10	
  8.491	-168.704	 10.73791	  2.75353	  8.14963	  4.67923	  6.00993	 -0.14850	 11.00126	709.46399	 34.10	
  8.500	180.000	 10.75475	  2.71633	  8.23353	  5.25295	  5.44055	 -0.14136	 11.01572	709.45099	 34.10	
 10.200	180.000	 10.56540	  2.03330	  8.66477	  5.09101	  5.28411	 -0.23386	 10.99856	709.53302	 34.10	
 10.191	-170.497	 10.57272	  2.06197	  8.62624	  4.53301	  5.85567	 -0.24844	 11.01350	709.48499	 34.10	
 10.210	-161.034	 10.55186	  2.15529	  8.47147	  3.96945	  6.42633	 -0.25456	 11.00564	709.48798	 34.10	
 10.194	-151.526	 10.56082	  2.35364	  8.23174	  3.47497	  6.97128	 -0.24988	 11.02433	709.53998	 34.10	
 10.190	-142.105	 10.53810	  2.61633	  7.88044	  3.00931	  7.46655	 -0.23748	 11.01175	709.39600	 34.10	
 10.215	-132.646	 10.52535	  2.94638	  7.46792	  2.60554	  7.91120	 -0.23018	 11.01610	709.46698	 34.10	
 10.203	-123.092	 10.51558	  3.35500	  6.97845	  2.26720	  8.28945	 -0.24142	 11.01789	709.44000	 34.10	
 10.192	-113.678	 10.48699	  3.81209	  6.43595	  2.03645	  8.53896	 -0.25159	 10.99348	709.48798	 34.10	
 10.208	-104.249	 10.50037	  4.33750	  5.88172	  1.85464	  8.75508	 -0.26738	 11.01569	709.43701	 34.00	
 10.210	-94.801	 10.49381	  4.88321	  5.29840	  1.76284	  8.84953	 -0.27418	 11.01148	709.47998	 34.00	
 10.210	-85.199	 10.50072	  5.45623	  4.72393	  1.76199	  8.84557	 -0.28428	 11.01868	709.39398	 34.10	
 10.208	-75.751	 10.49607	  6.02367	  4.17156	  1.82958	  8.73900	 -0.29658	 11.01504	709.40698	 34.10	
 10.192	-66.322	 10.50946	  6.59235	  3.65945	  1.99199	  8.54010	 -0.29576	 11.02437	709.44800	 34.00	
 10.203	-56.908	 10.50472	  7.10402	  3.19173	  2.22778	  8.24175	 -0.29059	 11.01469	709.56000	 34.10	
 10.215	-47.354	 10.48391	  7.58796	  2.74817	  2.52044	  7.86133	 -0.27015	 10.99352	709.44800	 34.10	
 10.190	-37.895	 10.50764	  8.01675	  2.41432	  2.92567	  7.41778	 -0.24668	 11.00986	709.44202	 34.10	
 10.194	-28.474	 10.49059	  8.35016	  2.12895	  3.36323	  6.90892	 -0.24301	 10.99117	709.35303	 34.10	
 10.210	-18.966	 10.49322	  8.60681	  1.92880	  3.85621	  6.37162	 -0.24361	 10.98836	709.40997	 34.10	
 10.191	 -9.503	 10.49972	  8.77071	  1.81467	  4.39605	  5.80987	 -0.24062	 10.99174	709.46600	 34.20	
 10.200	  0.000	 10.53171	  8.86018	  1.78533	  4.98414	  5.24288	 -0.23543	 11.02119	709.45099	 34.20	
 10.191	  9.503	 10.53029	  8.82494	  1.81417	  5.56193	  4.67740	 -0.23026	 11.01691	709.46899	 34.20	
 10.210	 18.966	 10.52266	  8.68174	  1.93516	  6.13413	  4.13048	 -0.24149	 11.00385	709.40698	 34.20	
 10.194	 28.474	 10.53128	  8.44474	  2.14677	  6.68894	  3.63975	 -0.23775	 11.00085	709.47998	 34.20	
 10.190	 37.895	 10.54044	  8.13334	  2.42303	  7.19452	  3.21009	 -0.22185	 11.00005	709.42401	 34.20	
 10.215	 47.354	 10.55884	  7.74271	  2.78005	  7.66735	  2.81835	 -0.20706	 11.01175	709.47498	 34.20	
 10.203	 56.908	 10.57463	  7.27901	  3.20723	  8.05635	  2.51702	 -0.21155	 11.01670	709.40399	 34.20	
 10.192	 66.322	 10.57191	  6.75962	  3.67691	  8.34916	  2.28509	 -0.22575	 11.00596	709.45898	 34.20	
 10.208	 75.751	 10.57020	  6.20532	  4.19367	  8.56075	  2.12219	 -0.23630	 11.00275	709.45599	 34.20	
 10.210	 85.199	 10.57757	  5.63794	  4.75600	  8.67490	  2.04517	 -0.24197	 11.00495	709.51300	 34.20	
 10.210	 94.801	 10.58948	  5.06687	  5.34163	  8.69136	  2.05673	 -0.24471	 11.01140	709.47998	 34.30	
 10.208	104.249	 10.59373	  4.50808	  5.92073	  8.61231	  2.13244	 -0.25375	 11.01723	709.56097	 34.30	
 10.192	113.678	 10.58300	  3.98011	  6.47705	  8.40091	  2.30555	 -0.24504	 10.99925	709.51501	 34.20	
 10.203	123.092	 10.56822	  3.51137	  6.98579	  8.10349	  2.53877	 -0.23152	 10.97870	709.49298	 34.20	
 10.215	132.646	 10.57534	  3.07735	  7.47799	  7.74117	  2.85260	 -0.21383	 10.98690	709.48499	 34.30	
 10.190	142.105	 10.59438	  2.73462	  7.89920	  7.29889	  3.25203	 -0.20602	 10.99975	709.48999	 34.30	
 10.194	151.526	 10.59230	  2.44178	  8.23907	  6.80180	  3.68666	 -0.21216	 11.00280	709.46698	 34.30	
 10.210	161.034	 10.58397	  2.22293	  8.48267	  6.25234	  4.18012	 -0.22179	 11.00128	709.37500	 34.30	
 10.191	170.497	 10.59077	  2.09634	  8.63497	  5.68571	  4.72607	 -0.22783	 11.01198	709.51703	 34.30	
 11.899	171.783	 10.38115	  1.40597	  9.06498	  5.51385	  4.53625	 -0.32400	 11.01610	709.38501	 34.30	
 11.890	163.610	 10.39264	  1.52155	  8.94150	  6.09587	  3.99850	 -0.31429	 11.02119	709.40698	 34.30	
 11.889	155.445	 10.39299	  1.70698	  8.72401	  6.65134	  3.48449	 -0.30325	 11.01345	709.39899	 34.30	
 11.909	147.299	 10.38678	  1.94323	  8.43379	  7.17809	  3.00823	 -0.29353	 11.00584	709.40100	 34.30	
 11.902	139.148	 10.36455	  2.24898	  8.04633	  7.64866	  2.58612	 -0.29390	 10.98382	709.31500	 34.30	
 11.894	130.867	 10.38052	  2.63290	  7.61245	  8.09662	  2.22734	 -0.30576	 10.99760	709.41498	 34.30	
 11.897	122.732	 10.38460	  3.06487	  7.12402	  8.46288	  1.92810	 -0.32347	 11.00490	709.39099	 34.30	
 11.903	114.597	 10.36618	  3.53264	  6.58457	  8.73655	  1.68613	 -0.33906	 10.98676	709.29602	 34.40	
 11.893	106.346	 10.37679	  4.05383	  6.02602	  8.95251	  1.52144	 -0.34937	 11.00080	709.36700	 34.40	
 11.892	 98.155	 10.38319	  4.61020	  5.44817	  9.08335	  1.41241	 -0.34735	 11.01135	709.29700	 34.40	
 11.900	 90.000	 10.40624	  5.18631	  4.88624	  9.13301	  1.38075	 -0.34431	 11.03625	709.40100	 34.40	
 11.892	 81.845	 10.39792	  5.76240	  4.30655	  9.08143	  1.40088	 -0.33489	 11.03299	709.29102	 34.40	
 11.893	 73.654	 10.38610	  6.33327	  3.75167	  8.92730	  1.50063	 -0.32422	 11.02231	709.32098	 34.40	
 11.903	 65.403	 10.34029	  6.85728	  3.22689	  8.66565	  1.66103	 -0.30645	 10.97852	709.36902	 34.30	
 11.897	 57.268	 10.32596	  7.37035	  2.74584	  8.36021	  1.88849	 -0.29424	 10.97642	709.32098	 34.30	
 11.894	 49.133	 10.34737	  7.86126	  2.33739	  8.00479	  2.19186	 -0.28875	 11.00596	709.36700	 34.30	
 11.902	 40.852	 10.34550	  8.29175	  1.96573	  7.55089	  2.56538	 -0.29909	 11.00978	709.37000	 34.40	
 11.909	 32.701	 10.36507	  8.66938	  1.66123	  7.07432	  2.98530	 -0.32094	 11.04244	709.38000	 34.40	
 11.889	 24.555	 10.34954	  8.93136	  1.43134	  6.53130	  3.44816	 -0.33114	 11.03251	709.42401	 34.40	
 11.890	 16.390	 10.31141	  9.10638	  1.24891	  5.95710	  3.93840	 -0.33167	 11.00265	709.37500	 34.30	
 11.899	  8.217	 10.30474	  9.22347	  1.14710	  5.37378	  4.47432	 -0.32367	 11.00198	709.36700	 34.30	
 11.900	  0.000	 10.29211	  9.24619	  1.10403	  4.78520	  5.04094	 -0.32719	 10.99529	709.37201	 34.30	
 11.899	 -8.217	 10.31534	  9.21934	  1.13380	  4.21627	  5.63052	 -0.33181	 11.02665	709.37000	 34.30	
 11.890	-16.390	 10.31108	  9.06963	  1.23693	  3.66252	  6.20795	 -0.32981	 11.02739	709.46100	 34.30	
 11.889	-24.555	 10.29693	  8.83671	  1.40190	  3.15320	  6.75028	 -0.32711	 11.01806	709.41199	 34.30	
 11.909	-32.701	 10.28135	  8.52538	  1.63320	  2.67417	  7.27428	 -0.32651	 11.00814	709.27802	 34.20	
 11.902	-40.852	 10.29488	  8.16253	  1.93554	  2.25433	  7.77464	 -0.33781	 11.02604	709.31201	 34.30	
 11.894	-49.133	 10.30027	  7.72102	  2.30450	  1.89944	  8.21419	 -0.35991	 11.03646	709.25000	 34.30	
 11.897	-57.268	 10.26956	  7.21008	  2.71855	  1.59885	  8.55576	 -0.37380	 11.00686	709.27502	 34.30	
 11.903	-65.403	 10.25727	  6.67040	  3.18535	  1.36388	  8.84446	 -0.37957	 10.99901	709.26202	 34.20	
 11.893	-73.654	 10.24252	  6.10014	  3.69357	  1.19283	  9.05903	 -0.38428	 10.99023	709.29700	 34.20	
 11.892	-81.845	 10.25454	  5.53131	  4.24729	  1.09119	  9.21300	 -0.37977	 11.00899	709.21600	 34.30	
 11.900	-90.000	 10.23620	  4.95911	  4.79606	  1.06201	  9.24520	 -0.37073	 10.99110	709.34698	 34.30	
 11.892	-98.155	 10.25160	  4.40389	  5.38329	  1.11575	  9.21047	 -0.36052	 11.00015	709.29401	 34.30	
 11.893	-106.346	 10.25189	  3.86295	  5.96331	  1.23270	  9.07978	 -0.34848	 10.99712	709.30402	 34.40	
 11.903	-114.597	 10.25962	  3.34635	  6.53566	  1.41197	  8.87575	 -0.33219	 10.99948	709.25598	 34.40	
 11.897	-122.732	 10.25813	  2.89037	  7.05501	  1.65604	  8.58216	 -0.32015	 10.98708	709.31299	 34.40	
 11.894	-130.867	 10.30800	  2.50034	  7.57099	  1.97285	  8.25693	 -0.31434	 11.02558	709.17999	 34.40	
 11.902	-139.148	 10.28905	  2.12688	  8.00518	  2.34051	  7.80565	 -0.31958	 10.99690	709.30402	 34.40	
 11.909	-147.299	 10.31002	  1.84655	  8.38131	  2.77735	  7.32740	 -0.33570	 11.00249	709.30701	 34.40	
 11.889	-155.445	 10.31979	  1.62425	  8.67338	  3.26265	  6.80371	 -0.34278	 10.99478	709.28900	 34.40	
 11.890	-163.610	 10.30980	  1.45964	  8.88317	  3.78310	  6.22711	 -0.34766	 10.97422	709.24597	 34.40	
 11.899	-171.783	 10.33015	  1.37295	  9.02726	  4.33642	  5.66497	 -0.34294	 10.98367	709.34802	 34.40	
 11.900	180.000	 10.35757	  1.35299	  9.09636	  4.92405	  5.09260	 -0.33701	 11.00161	709.25000	 34.50	
 13.600	180.000	 10.10303	  0.67515	  9.47505	  4.71870	  4.87755	 -0.42470	 11.00188	709.25702	 34.50	
 13.608	-172.853	 10.10887	  0.68340	  9.45312	  4.14634	  5.46556	 -0.43265	 11.02193	709.21100	 34.50	
 13.611	-165.583	 10.07979	  0.75839	  9.31516	  3.57490	  6.03746	 -0.44223	 11.00258	709.26501	 34.50	
 13.601	-158.353	 10.07786	  0.90289	  9.12111	  3.04925	  6.60337	 -0.43880	 11.01066	709.21802	 34.50	
 13.609	-151.210	 10.07125	  1.08848	  8.86224	  2.55621	  7.15010	 -0.42737	 11.02234	709.17798	 34.50	
 13.611	-143.999	 10.03268	  1.33104	  8.50645	  2.08197	  7.65258	 -0.41324	 10.99923	709.22601	 34.50	
 13.601	-136.825	 10.03937	  1.64011	  8.11962	  1.69109	  8.12198	 -0.39509	 11.01785	709.23798	 34.50	
 13.596	-129.640	 10.01595	  2.00272	  7.64933	  1.32988	  8.53211	 -0.38671	 11.00285	709.18402	 34.50	
