FileType=PCF
NHL=14
Date=08/29/17	14:10:52
Facility=APL
Serial=16328-15
Customer=NASA
NP=6
Mach=0.200000
Calibration=1:1
CalPts=490
TstPts=95
PortNumbering=AP Standard
Units=Torr C m/s kg/m^3 deg mm 
Theta[deg]	Phi[deg]	P1[Torr]	P2[Torr]	P3[Torr]	P4[Torr]	P5[Torr]	P6[Torr]	Pt[Torr]	Ps[Abs,Torr]	Ts[C]	
  0.000	  0.000	 19.55715	 10.35647	 10.06794	 10.12660	 10.39931	  0.15921	 19.53421	704.11499	 22.90	
  1.691	128.401	 19.53565	  9.72294	 10.64156	 10.86718	  9.60100	  0.15827	 19.51233	704.12903	 22.90	
  1.692	 77.194	 19.55770	 10.56379	  9.81985	 11.06993	  9.41508	  0.15433	 19.52911	704.10400	 22.90	
  1.699	 26.182	 19.56511	 11.24259	  9.16093	 10.53357	  9.92668	  0.13842	 19.53814	704.15503	 22.90	
  1.699	-26.182	 19.58070	 11.24347	  9.17899	  9.67307	 10.81679	  0.13837	 19.56415	704.19897	 22.90	
  1.692	-77.194	 19.55324	 10.54737	  9.83139	  9.15797	 11.34157	  0.13237	 19.54319	704.20599	 22.90	
  1.691	-128.401	 19.56479	  9.73143	 10.66816	  9.35006	 11.16601	  0.13821	 19.54555	704.13000	 22.90	
  1.700	180.000	 19.56936	  9.37113	 11.05626	 10.11274	 10.39228	  0.15364	 19.55034	704.21600	 22.90	
  3.400	180.000	 19.52661	  8.33583	 12.02194	 10.01678	 10.31001	  0.11131	 19.54380	704.14899	 23.00	
  3.388	-152.325	 19.50103	  8.51942	 11.76248	  9.10252	 11.24067	  0.11063	 19.54084	704.24701	 23.00	
  3.397	-124.529	 19.51941	  9.08588	 11.10323	  8.41977	 11.97350	  0.09079	 19.56025	704.15997	 23.00	
  3.399	-96.763	 19.50887	  9.95540	 10.16954	  8.08051	 12.32879	  0.07000	 19.55479	704.18799	 22.90	
  3.394	-69.283	 19.50733	 10.91962	  9.20973	  8.16494	 12.18301	  0.06244	 19.53901	704.23401	 23.00	
  3.400	-41.398	 19.51179	 11.76433	  8.42841	  8.66864	 11.59888	  0.06603	 19.53370	704.26202	 23.00	
  3.401	-14.021	 19.53568	 12.24504	  8.03245	  9.46702	 10.74272	  0.08004	 19.54757	704.20203	 23.00	
  3.401	 14.021	 19.54593	 12.25681	  8.04305	 10.45035	  9.76866	  0.10390	 19.53900	704.07501	 23.00	
  3.400	 41.398	 19.54028	 11.78711	  8.44722	 11.30828	  8.95419	  0.11046	 19.51945	704.17200	 23.00	
  3.394	 69.283	 19.54964	 10.97116	  9.23827	 11.90547	  8.47882	  0.11634	 19.53138	704.24103	 22.90	
  3.399	 96.763	 19.55857	 10.01887	 10.19599	 12.02537	  8.40885	  0.11801	 19.55163	704.21698	 22.90	
  3.397	124.529	 19.55909	  9.17851	 11.10089	 11.69565	  8.72324	  0.12451	 19.54973	704.15503	 22.90	
  3.388	152.325	 19.54354	  8.57950	 11.76305	 10.96680	  9.40242	  0.11744	 19.55283	704.18500	 22.90	
  5.099	161.165	 19.44546	  7.34766	 12.78577	 10.86785	  9.16312	  0.02879	 19.55390	704.21399	 22.90	
  5.109	142.013	 19.48046	  7.79622	 12.28179	 11.79470	  8.31523	  0.03001	 19.55795	704.17102	 22.90	
  5.095	123.033	 19.48400	  8.49250	 11.47411	 12.48087	  7.69639	  0.02631	 19.53915	704.16498	 22.90	
  5.105	104.191	 19.49051	  9.36798	 10.51584	 12.91380	  7.31007	  0.01776	 19.53432	704.21899	 22.90	
  5.093	 85.207	 19.49531	 10.37962	  9.48759	 12.98300	  7.22636	  0.02220	 19.54088	704.60797	 22.90	
  5.104	 66.290	 19.50924	 11.38158	  8.54053	 12.72363	  7.42604	  0.02763	 19.55404	704.14099	 22.90	
  5.094	 47.331	 19.48897	 12.24105	  7.72547	 12.11784	  7.90611	  0.01764	 19.52973	704.22498	 22.90	
  5.089	 28.397	 19.46909	 12.87799	  7.14732	 11.28499	  8.64317	  0.00023	 19.52411	704.23297	 22.90	
  5.096	  9.576	 19.45539	 13.22226	  6.84098	 10.30619	  9.57265	 -0.00555	 19.52880	704.14099	 22.90	
  5.096	 -9.576	 19.44527	 13.21720	  6.84501	  9.27634	 10.61553	 -0.01734	 19.53872	704.43597	 22.90	
  5.089	-28.397	 19.42321	 12.85488	  7.14851	  8.36194	 11.58127	 -0.02156	 19.53626	704.51398	 22.90	
  5.094	-47.331	 19.43684	 12.21305	  7.73805	  7.61975	 12.44673	 -0.03756	 19.57191	705.91302	 22.90	
  5.104	-66.290	 19.38757	 11.30871	  8.54395	  7.09263	 13.03276	 -0.05045	 19.54701	704.35699	 22.90	
  5.093	-85.207	 19.37080	 10.29569	  9.51096	  6.87838	 13.29599	 -0.04545	 19.54686	705.47198	 22.90	
  5.105	-104.191	 19.35375	  9.28250	 10.53382	  6.95003	 13.22196	 -0.02855	 19.53835	705.92200	 22.90	
  5.095	-123.033	 19.34466	  8.38730	 11.48763	  7.33675	 12.77608	 -0.01075	 19.53199	704.23901	 22.90	
  5.109	-142.013	 19.38868	  7.72185	 12.29458	  8.00366	 12.08463	  0.00394	 19.56360	704.35498	 22.90	
  5.099	-161.165	 19.39159	  7.30053	 12.78855	  8.86801	 11.14793	  0.01475	 19.54925	704.11798	 22.90	
  5.100	180.000	 19.41137	  7.17790	 12.95944	  9.84564	 10.14422	  0.02920	 19.54711	704.21002	 22.90	
  6.800	180.000	 19.24536	  5.99126	 13.89574	  9.66959	  9.96810	 -0.08863	 19.56918	704.17700	 22.90	
  6.796	-166.229	 19.19382	  6.07611	 13.75926	  8.69040	 10.94162	 -0.08996	 19.54757	704.17999	 22.90	
  6.808	-152.311	 19.18685	  6.37021	 13.40181	  7.79060	 11.91302	 -0.10304	 19.56088	704.17999	 22.90	
  6.795	-138.383	 19.13272	  6.86779	 12.77260	  6.98641	 12.74069	 -0.11306	 19.52501	704.25897	 22.90	
  6.792	-124.591	 19.15213	  7.56505	 12.00261	  6.37917	 13.45921	 -0.12794	 19.55385	704.15399	 22.90	
  6.787	-110.754	 19.13530	  8.39024	 11.08460	  5.94840	 13.91996	 -0.14639	 19.54078	704.66602	 22.90	
  6.800	-96.985	 19.12591	  9.32039	 10.08908	  5.72850	 14.15924	 -0.17405	 19.52656	705.74200	 22.90	
  6.800	-83.015	 19.15118	 10.33725	  9.08363	  5.72275	 14.16045	 -0.19144	 19.54187	704.16101	 22.90	
  6.787	-69.246	 19.19534	 11.33517	  8.14952	  5.94025	 13.92668	 -0.19951	 19.56284	704.04498	 22.90	
  6.792	-55.409	 19.19676	 12.23896	  7.29169	  6.33866	 13.42504	 -0.18769	 19.54400	705.72400	 22.90	
  6.795	-41.617	 19.24004	 13.04341	  6.59502	  6.95273	 12.73619	 -0.16482	 19.55954	704.06097	 22.90	
  6.808	-27.689	 19.22481	 13.63943	  6.05211	  7.71266	 11.84556	 -0.15935	 19.51658	704.05103	 22.90	
  6.796	-13.771	 19.27742	 14.03575	  5.74255	  8.62346	 10.89907	 -0.14075	 19.54475	704.24701	 22.90	
  6.800	  0.000	 19.31211	 14.18020	  5.63607	  9.60230	  9.91523	 -0.14021	 19.54858	703.97101	 22.90	
  6.796	 13.771	 19.32897	 14.06716	  5.73162	 10.59973	  8.93176	 -0.12792	 19.55708	704.03101	 22.90	
  6.808	 27.689	 19.34062	 13.70538	  6.03257	 11.56958	  8.01652	 -0.12072	 19.55111	704.06097	 22.90	
  6.795	 41.617	 19.32837	 13.09394	  6.55625	 12.40347	  7.24548	 -0.10180	 19.51434	705.83099	 22.90	
  6.792	 55.409	 19.37092	 12.35119	  7.26430	 13.13416	  6.65863	 -0.08804	 19.55416	704.03900	 22.90	
  6.787	 69.246	 19.39148	 11.45247	  8.11324	 13.63556	  6.26044	 -0.07892	 19.56863	704.04700	 22.90	
  6.800	 83.015	 19.36924	 10.46313	  9.04831	 13.88751	  6.04720	 -0.09674	 19.54869	704.14801	 22.90	
  6.800	 96.985	 19.33592	  9.44672	 10.04403	 13.88262	  6.04972	 -0.09653	 19.51894	704.16901	 22.90	
  6.787	110.754	 19.36107	  8.52180	 11.05677	 13.65492	  6.29140	 -0.09143	 19.55349	704.09198	 22.90	
  6.792	124.591	 19.31932	  7.66930	 11.95414	 13.16133	  6.69991	 -0.08973	 19.53069	704.20300	 22.90	
  6.795	138.383	 19.28497	  6.96901	 12.73222	 12.46173	  7.29897	 -0.07939	 19.51283	704.21899	 22.90	
  6.808	152.311	 19.25600	  6.42758	 13.35325	 11.62110	  8.06425	 -0.07116	 19.52698	704.13702	 22.90	
  6.796	166.229	 19.26231	  6.11009	 13.75393	 10.68184	  8.97821	 -0.08120	 19.55548	704.15997	 22.90	
  8.491	168.704	 18.96909	  4.89823	 14.60433	 10.47578	  8.70741	 -0.22662	 19.52607	704.24103	 22.90	
  8.502	157.493	 19.00797	  5.16344	 14.30803	 11.46397	  7.78429	 -0.19966	 19.53938	704.16803	 22.90	
  8.494	146.194	 19.05044	  5.60926	 13.79594	 12.39389	  6.94368	 -0.21147	 19.53863	704.21698	 22.90	
  8.495	135.039	 19.08236	  6.20292	 13.11578	 13.21113	  6.21696	 -0.22832	 19.53666	704.15399	 22.80	
  8.487	123.723	 19.12826	  6.95462	 12.28293	 13.89747	  5.63443	 -0.23486	 19.56443	704.27197	 22.90	
  8.492	112.575	 19.10606	  7.77825	 11.33417	 14.36059	  5.19821	 -0.23700	 19.51591	704.08099	 22.90	
  8.510	101.220	 19.15873	  8.74091	 10.34683	 14.69555	  4.93548	 -0.25496	 19.55722	704.25000	 22.90	
  8.500	 90.000	 19.15129	  9.72824	  9.31488	 14.76274	  4.84440	 -0.24832	 19.54422	704.21399	 22.90	
  8.510	 78.780	 19.16990	 10.75275	  8.31189	 14.66297	  4.92590	 -0.23156	 19.55427	704.17102	 22.90	
  8.492	 67.425	 19.16772	 11.74597	  7.36375	 14.32930	  5.18531	 -0.21483	 19.54950	704.13800	 22.90	
  8.487	 56.277	 19.15045	 12.64907	  6.52471	 13.81927	  5.58881	 -0.21800	 19.54288	704.07001	 22.90	
  8.495	 44.961	 19.13576	 13.46950	  5.77848	 13.12513	  6.16510	 -0.23785	 19.53321	704.20001	 22.90	
  8.494	 33.806	 19.10498	 14.11179	  5.20023	 12.29071	  6.87821	 -0.25605	 19.51927	704.22400	 22.90	
  8.502	 22.507	 19.09913	 14.62048	  4.77285	 11.36421	  7.72791	 -0.26846	 19.53378	704.11603	 22.90	
  8.491	 11.296	 19.06081	 14.89125	  4.52804	 10.36645	  8.64745	 -0.28650	 19.50991	704.03101	 22.90	
  8.500	  0.000	 19.04056	 14.99398	  4.44118	  9.34359	  9.66061	 -0.29114	 19.51634	704.03601	 22.90	
  8.491	-11.296	 19.01216	 14.86980	  4.53481	  8.34768	 10.67943	 -0.29217	 19.51324	704.17700	 22.80	
  8.502	-22.507	 19.00585	 14.56975	  4.79812	  7.42230	 11.67409	 -0.29001	 19.54059	704.23297	 22.80	
  8.494	-33.806	 18.99411	 14.06151	  5.23638	  6.57266	 12.62237	 -0.31078	 19.55822	704.19598	 22.80	
  8.495	-44.961	 18.96150	 13.37565	  5.81698	  5.85466	 13.43384	 -0.33174	 19.54282	704.12903	 22.80	
  8.487	-56.277	 18.93725	 12.54091	  6.57020	  5.29645	 14.09732	 -0.34753	 19.54150	704.12299	 22.80	
  8.492	-67.425	 18.90994	 11.62143	  7.40376	  4.87542	 14.59798	 -0.35772	 19.53976	704.21899	 22.80	
  8.510	-78.780	 18.89186	 10.61954	  8.35937	  4.61658	 14.92694	 -0.36841	 19.55796	704.24799	 22.80	
  8.500	-90.000	 18.85954	  9.59710	  9.35597	  4.53617	 15.02346	 -0.35062	 19.53605	704.13202	 22.80	
  8.510	-101.220	 18.85095	  8.59116	 10.37535	  4.61527	 14.93721	 -0.33344	 19.54106	704.05103	 22.80	
  8.492	-112.575	 18.84324	  7.64791	 11.38234	  4.89821	 14.61097	 -0.29344	 19.53663	704.09302	 22.80	
  8.487	-123.723	 18.87124	  6.82821	 12.31420	  5.33340	 14.14161	 -0.26456	 19.57340	704.20801	 22.90	
  8.495	-135.039	 18.84586	  6.09200	 13.11957	  5.89961	 13.45482	 -0.26578	 19.52882	704.13202	 22.80	
  8.494	-146.194	 18.86001	  5.52427	 13.79193	  6.63672	 12.63596	 -0.25952	 19.52079	704.21899	 22.90	
  8.502	-157.493	 18.87372	  5.11045	 14.30072	  7.49822	 11.69940	 -0.23617	 19.51214	704.24103	 22.90	
  8.491	-168.704	 18.92535	  4.88017	 14.61885	  8.44283	 10.73537	 -0.23685	 19.53083	704.16901	 22.90	
  8.500	180.000	 18.97789	  4.80324	 14.75198	  9.45808	  9.73483	 -0.24105	 19.56683	704.25098	 22.90	
 10.200	180.000	 18.61566	  3.60460	 15.52417	  9.17617	  9.44503	 -0.39228	 19.54873	704.15198	 22.80	
 10.191	-170.497	 18.59962	  3.66158	 15.45064	  8.16963	 10.46407	 -0.40405	 19.55936	704.11798	 22.90	
 10.210	-161.034	 18.55470	  3.85587	 15.18054	  7.20224	 11.45899	 -0.39324	 19.54051	704.08502	 22.90	
 10.194	-151.526	 18.54009	  4.20285	 14.73930	  6.30510	 12.44485	 -0.40090	 19.54677	705.15002	 22.90	
 10.190	-142.105	 18.51293	  4.68270	 14.14079	  5.49058	 13.32222	 -0.40436	 19.54452	704.22400	 22.90	
 10.215	-132.646	 18.46860	  5.27689	 13.39849	  4.79256	 14.08192	 -0.40162	 19.51465	704.25800	 22.80	
 10.203	-123.092	 18.47555	  6.02398	 12.55054	  4.22654	 14.75313	 -0.40689	 19.52632	704.24103	 22.90	
 10.192	-113.678	 18.49512	  6.87688	 11.62651	  3.79931	 15.27749	 -0.44536	 19.55505	704.26398	 22.80	
 10.208	-104.249	 18.47792	  7.78060	 10.62683	  3.48157	 15.62432	 -0.48833	 19.54233	704.18799	 22.90	
 10.210	-94.801	 18.47617	  8.75424	  9.59348	  3.32144	 15.79446	 -0.52158	 19.53377	704.26501	 22.80	
 10.210	-85.199	 18.49529	  9.79652	  8.55435	  3.31901	 15.79213	 -0.53615	 19.53093	704.28198	 22.90	
 10.208	-75.751	 18.51777	 10.82081	  7.56687	  3.45363	 15.60908	 -0.54497	 19.53482	704.30298	 22.90	
 10.192	-66.322	 18.54521	 11.81321	  6.64296	  3.75553	 15.24435	 -0.54922	 19.53301	704.18799	 22.80	
 10.203	-56.908	 18.58012	 12.76251	  5.78969	  4.17324	 14.74623	 -0.51600	 19.54299	704.26398	 22.80	
 10.215	-47.354	 18.59023	 13.60985	  5.02819	  4.72696	 14.06369	 -0.49741	 19.52424	704.25598	 22.80	
 10.190	-37.895	 18.63291	 14.34768	  4.41036	  5.40494	 13.28377	 -0.47394	 19.52462	704.21698	 22.80	
 10.194	-28.474	 18.68431	 14.96820	  3.90916	  6.19514	 12.41597	 -0.45384	 19.55857	704.20203	 22.80	
 10.210	-18.966	 18.71142	 15.42240	  3.53960	  7.09288	 11.43145	 -0.44925	 19.55875	705.36700	 22.80	
 10.191	 -9.503	 18.72524	 15.68294	  3.32982	  8.05078	 10.41391	 -0.45532	 19.54235	704.89099	 22.80	
 10.200	  0.000	 18.75235	 15.79482	  3.23731	  9.05018	  9.39059	 -0.45701	 19.54306	705.81799	 22.80	
 10.191	  9.503	 18.76198	 15.70792	  3.29983	 10.08022	  8.36308	 -0.45346	 19.53348	704.22699	 22.80	
 10.210	 18.966	 18.80402	 15.47731	  3.49937	 11.10030	  7.41180	 -0.43623	 19.54954	704.21399	 22.80	
 10.194	 28.474	 18.81870	 15.04458	  3.86684	 12.06442	  6.52996	 -0.42490	 19.54009	704.27802	 22.90	
 10.190	 37.895	 18.86390	 14.48489	  4.36685	 12.98850	  5.74207	 -0.40610	 19.56344	704.24799	 22.80	
 10.215	 47.354	 18.85188	 13.75917	  4.96751	 13.78721	  5.03332	 -0.38150	 19.54609	704.46899	 22.80	
 10.203	 56.908	 18.87608	 12.92608	  5.73060	 14.46137	  4.49732	 -0.35279	 19.55439	704.26703	 22.90	
 10.192	 66.322	 18.86807	 11.98821	  6.57679	 14.96427	  4.07849	 -0.34291	 19.53382	704.39697	 22.90	
 10.208	 75.751	 18.87201	 11.00440	  7.49882	 15.34122	  3.78318	 -0.37800	 19.54088	704.31799	 22.90	
 10.210	 85.199	 18.87456	  9.99198	  8.49607	 15.53985	  3.65217	 -0.40176	 19.54484	704.26202	 22.80	
 10.210	 94.801	 18.86884	  8.94953	  9.54320	 15.54357	  3.65796	 -0.42644	 19.53936	704.30902	 22.80	
 10.208	104.249	 18.86393	  7.97436	 10.58256	 15.38508	  3.82439	 -0.42310	 19.55157	704.38800	 22.80	
 10.192	113.678	 18.83356	  7.04784	 11.57905	 15.02970	  4.12252	 -0.40018	 19.53377	704.23297	 22.80	
 10.203	123.092	 18.83129	  6.19973	 12.52985	 14.55980	  4.54377	 -0.39427	 19.56258	705.78900	 22.80	
 10.215	132.646	 18.79003	  5.43315	 13.39536	 13.90288	  5.09504	 -0.37981	 19.54417	704.25000	 22.90	
 10.190	142.105	 18.75821	  4.80481	 14.12389	 13.10312	  5.79041	 -0.36735	 19.55231	704.35999	 22.80	
 10.194	151.526	 18.76262	  4.31099	 14.75867	 12.23231	  6.60794	 -0.35026	 19.59172	705.93799	 22.80	
 10.210	161.034	 18.66712	  3.92020	 15.15666	 11.22584	  7.46882	 -0.35194	 19.53066	705.34698	 22.90	
 10.191	170.497	 18.66846	  3.70304	 15.43499	 10.23306	  8.43204	 -0.38234	 19.55497	705.91400	 22.90	
 11.899	171.783	 18.22447	  2.47768	 16.16571	  9.90501	  8.09010	 -0.53813	 19.53051	704.30402	 22.90	
 11.890	163.610	 18.25089	  2.67134	 15.92883	 10.90782	  7.12934	 -0.51164	 19.52020	704.18298	 22.90	
 11.889	155.445	 18.28195	  2.98769	 15.54667	 11.89913	  6.21860	 -0.49342	 19.52494	703.99103	 22.90	
 11.909	147.299	 18.34089	  3.41704	 15.04535	 12.86553	  5.37032	 -0.50599	 19.55302	704.11298	 22.90	
 11.902	139.148	 18.39017	  3.97518	 14.39107	 13.73309	  4.63112	 -0.51858	 19.56158	704.38000	 22.90	
 11.894	130.867	 18.42418	  4.65521	 13.60088	 14.48625	  3.99128	 -0.53775	 19.55824	704.27002	 22.90	
 11.897	122.732	 18.46151	  5.40715	 12.73850	 15.14054	  3.44469	 -0.54847	 19.55532	704.18500	 22.90	
 11.903	114.597	 18.47811	  6.23406	 11.77733	 15.65089	  3.00368	 -0.57764	 19.55140	705.78900	 22.90	
 11.893	106.346	 18.50693	  7.17207	 10.76838	 16.02700	  2.69399	 -0.59664	 19.56686	704.17902	 22.90	
 11.892	 98.155	 18.51367	  8.14369	  9.73303	 16.23993	  2.49968	 -0.60960	 19.55082	704.11603	 22.90	
 11.900	 90.000	 18.51399	  9.14224	  8.68776	 16.29107	  2.43011	 -0.60525	 19.53934	704.12299	 22.90	
 11.892	 81.845	 18.51781	 10.16472	  7.66838	 16.19589	  2.49355	 -0.57433	 19.54077	704.95697	 22.90	
 11.893	 73.654	 18.53869	 11.21520	  6.70248	 15.96374	  2.68160	 -0.52411	 19.56791	704.17102	 22.90	
 11.903	 65.403	 18.53340	 12.20426	  5.76892	 15.56868	  2.97918	 -0.48616	 19.55567	704.09003	 22.90	
 11.897	 57.268	 18.53073	 13.13548	  4.93321	 15.03657	  3.40499	 -0.49925	 19.56255	704.02301	 22.90	
 11.894	 49.133	 18.52985	 13.98100	  4.18195	 14.37798	  3.94386	 -0.51867	 19.57665	704.13202	 22.90	
 11.902	 40.852	 18.47753	 14.71398	  3.51588	 13.57574	  4.57475	 -0.55304	 19.53886	704.12299	 22.90	
 11.909	 32.701	 18.44754	 15.34082	  2.97929	 12.70120	  5.31608	 -0.58013	 19.53442	704.15997	 22.90	
 11.889	 24.555	 18.45944	 15.86975	  2.57993	 11.77034	  6.17322	 -0.59715	 19.56186	704.27502	 22.90	
 11.890	 16.390	 18.39092	 16.19514	  2.27494	 10.75720	  7.05755	 -0.61389	 19.51973	705.87701	 22.90	
 11.899	  8.217	 18.41563	 16.46064	  2.09993	  9.76845	  8.03913	 -0.62413	 19.57391	704.19897	 22.90	
 11.900	  0.000	 18.37623	 16.50871	  2.04248	  8.71304	  9.04859	 -0.62191	 19.55431	704.13800	 22.90	
 11.899	 -8.217	 18.36197	 16.43630	  2.11198	  7.70669	 10.09092	 -0.61254	 19.57330	704.17102	 22.90	
 11.890	-16.390	 18.31412	 16.16388	  2.31003	  6.74047	 11.09275	 -0.60094	 19.53881	704.26501	 22.90	
 11.889	-24.555	 18.27353	 15.76663	  2.61531	  5.82230	 12.08177	 -0.60392	 19.52773	704.34003	 22.90	
 11.909	-32.701	 18.25571	 15.25155	  3.04401	  4.99129	 13.02818	 -0.60568	 19.55214	704.20001	 22.90	
 11.902	-40.852	 18.24358	 14.60204	  3.58688	  4.27185	 13.89213	 -0.62689	 19.56218	704.19397	 22.90	
 11.894	-49.133	 18.21583	 13.82087	  4.25286	  3.61804	 14.67476	 -0.64345	 19.56227	704.27002	 22.90	
 11.897	-57.268	 18.18773	 12.95134	  4.99638	  3.08371	 15.32686	 -0.67711	 19.56374	704.70099	 22.90	
 11.903	-65.403	 18.15620	 12.00915	  5.83641	  2.66021	 15.85342	 -0.70055	 19.56953	704.25800	 22.90	
 11.893	-73.654	 18.12237	 10.99671	  6.76197	  2.36988	 16.20724	 -0.70483	 19.55430	704.30902	 22.90	
 11.892	-81.845	 18.11395	  9.98387	  7.74502	  2.20232	 16.44634	 -0.69402	 19.56664	704.30902	 22.90	
 11.900	-90.000	 18.09879	  8.94852	  8.76425	  2.14429	 16.53897	 -0.68556	 19.57401	704.25000	 22.90	
 11.892	-98.155	 18.08184	  7.93544	  9.78902	  2.21240	 16.45905	 -0.66288	 19.56789	704.25500	 22.90	
 11.893	-106.346	 18.04823	  6.95614	 10.80532	  2.38781	 16.21854	 -0.63405	 19.54102	704.23297	 22.90	
 11.903	-114.597	 18.04237	  6.04734	 11.80898	  2.68785	 15.85620	 -0.58989	 19.55270	704.26398	 22.90	
 11.897	-122.732	 18.04787	  5.22388	 12.74673	  3.12665	 15.33803	 -0.55480	 19.54627	704.11603	 22.90	
 11.894	-130.867	 18.06149	  4.49524	 13.61360	  3.68070	 14.69361	 -0.53996	 19.54510	703.98199	 22.90	
 11.902	-139.148	 18.09910	  3.85109	 14.40822	  4.35557	 13.93879	 -0.54705	 19.56742	704.05298	 22.90	
 11.909	-147.299	 18.10435	  3.31508	 15.05536	  5.09911	 13.08156	 -0.56290	 19.55316	704.21600	 22.90	
 11.889	-155.445	 18.10771	  2.92775	 15.54351	  5.94540	 12.13468	 -0.56158	 19.52558	704.04498	 22.90	
 11.890	-163.610	 18.15564	  2.64332	 15.94836	  6.87646	 11.15693	 -0.55756	 19.55005	704.19299	 22.90	
 11.899	-171.783	 18.15217	  2.45845	 16.16218	  7.83443	 10.12160	 -0.55818	 19.51827	704.08502	 22.90	
 11.900	180.000	 18.21417	  2.41399	 16.26462	  8.86029	  9.12589	 -0.55849	 19.55411	704.19098	 22.90	
 13.600	180.000	 17.71714	  1.23682	 16.90910	  8.48516	  8.73387	 -0.72220	 19.54685	704.20203	 22.90	
 13.608	-172.853	 17.68110	  1.26817	 16.84928	  7.48673	  9.73239	 -0.73350	 19.53371	704.18597	 22.90	
 13.611	-165.583	 17.64779	  1.40451	 16.65364	  6.50383	 10.75575	 -0.73699	 19.52976	704.24402	 22.90	
 13.601	-158.353	 17.62085	  1.65511	 16.29444	  5.55787	 11.76828	 -0.72550	 19.53297	704.11499	 22.90	
 13.609	-151.210	 17.58982	  1.98878	 15.83873	  4.69170	 12.71331	 -0.72033	 19.52187	704.29303	 22.90	
 13.611	-143.999	 17.58365	  2.44512	 15.25697	  3.90682	 13.62865	 -0.70155	 19.53707	704.12097	 22.90	
 13.601	-136.825	 17.56134	  3.00380	 14.55468	  3.19738	 14.45454	 -0.67955	 19.52931	704.17499	 22.90	
 13.596	-129.640	 17.54067	  3.64941	 13.75249	  2.56447	 15.19331	 -0.66871	 19.53133	704.10901	 22.90	
