FileType=PCF
NHL=14
Date=08/29/17	15:57:34
Facility=APL
Serial=16328-15
Customer=NASA
NP=6
Mach=0.050000
Calibration=1:1
CalPts=490
TstPts=95
PortNumbering=AP Standard
Units=Torr C m/s kg/m^3 deg mm 
Theta[deg]	Phi[deg]	P1[Torr]	P2[Torr]	P3[Torr]	P4[Torr]	P5[Torr]	P6[Torr]	Pt[Torr]	Ps[Abs,Torr]	Ts[C]	
  0.000	  0.000	  1.28105	  0.69225	  0.68252	  0.68596	  0.69882	  0.00712	  1.27445	704.65601	 24.10	
  1.691	128.401	  1.27788	  0.65996	  0.70927	  0.72124	  0.65732	  0.00680	  1.27050	704.73102	 24.10	
  1.692	 77.194	  1.27779	  0.70439	  0.66291	  0.73246	  0.64685	  0.00716	  1.27154	704.65503	 24.10	
  1.699	 26.182	  1.28195	  0.74910	  0.62689	  0.70185	  0.67379	  0.00652	  1.27489	704.60400	 24.10	
  1.699	-26.182	  1.28038	  0.74829	  0.62443	  0.64942	  0.72737	  0.00524	  1.27323	704.73700	 24.10	
  1.692	-77.194	  1.28062	  0.70516	  0.66238	  0.62294	  0.76118	  0.00462	  1.27430	704.67798	 24.10	
  1.691	-128.401	  1.28422	  0.65884	  0.71442	  0.63637	  0.75144	  0.00579	  1.27701	704.68701	 24.10	
  1.700	180.000	  1.28003	  0.63970	  0.73571	  0.67656	  0.70050	  0.00654	  1.27414	704.64203	 24.10	
  3.400	180.000	  1.27712	  0.57186	  0.79906	  0.67053	  0.69599	  0.00387	  1.27292	704.91101	 24.10	
  3.388	-152.325	  1.27206	  0.58151	  0.78085	  0.61357	  0.75236	  0.00339	  1.26874	704.84198	 24.10	
  3.397	-124.529	  1.27506	  0.61785	  0.74245	  0.57464	  0.80181	  0.00232	  1.27309	704.76801	 24.10	
  3.399	-96.763	  1.27441	  0.67023	  0.68468	  0.55477	  0.82428	  0.00137	  1.27226	704.84198	 24.10	
  3.394	-69.283	  1.27482	  0.72942	  0.62571	  0.55969	  0.81562	  0.00113	  1.27101	704.68903	 24.10	
  3.400	-41.398	  1.27300	  0.78106	  0.57817	  0.58879	  0.77797	  0.00048	  1.26929	704.70099	 24.10	
  3.401	-14.021	  1.27837	  0.81398	  0.55464	  0.63888	  0.72716	  0.00139	  1.27275	704.78802	 24.10	
  3.401	 14.021	  1.27902	  0.81509	  0.55516	  0.70004	  0.66562	  0.00236	  1.27421	704.62799	 24.10	
  3.400	 41.398	  1.28127	  0.78762	  0.58072	  0.75501	  0.61645	  0.00357	  1.27422	704.72803	 24.10	
  3.394	 69.283	  1.27843	  0.73384	  0.62577	  0.78936	  0.58628	  0.00331	  1.27273	704.62097	 24.10	
  3.399	 96.763	  1.27851	  0.67440	  0.68297	  0.79760	  0.58091	  0.00360	  1.27224	704.58502	 24.10	
  3.397	124.529	  1.27960	  0.62285	  0.74064	  0.77694	  0.59944	  0.00405	  1.27326	704.65002	 24.10	
  3.388	152.325	  1.27755	  0.58650	  0.78193	  0.72990	  0.63930	  0.00317	  1.27171	704.66602	 24.10	
  5.099	161.165	  1.26174	  0.50799	  0.84228	  0.72089	  0.62214	 -0.00171	  1.26306	704.76001	 24.10	
  5.109	142.013	  1.27450	  0.54041	  0.81693	  0.78489	  0.57584	 -0.00120	  1.27561	704.66302	 24.10	
  5.095	123.033	  1.27367	  0.58271	  0.76580	  0.82737	  0.53787	 -0.00066	  1.27288	704.62701	 24.10	
  5.105	104.191	  1.27152	  0.63515	  0.70499	  0.85217	  0.51373	 -0.00066	  1.26938	704.67798	 24.10	
  5.093	 85.207	  1.27938	  0.70095	  0.64603	  0.86140	  0.51243	 -0.00008	  1.27683	704.76501	 24.10	
  5.104	 66.290	  1.27481	  0.76004	  0.58470	  0.84169	  0.52286	 -0.00096	  1.27147	704.68597	 24.10	
  5.094	 47.331	  1.27429	  0.81426	  0.53490	  0.80327	  0.55326	 -0.00067	  1.27208	704.70898	 24.10	
  5.089	 28.397	  1.27035	  0.85224	  0.49934	  0.75023	  0.59682	 -0.00187	  1.26812	704.67999	 24.10	
  5.096	  9.576	  1.26941	  0.87322	  0.48059	  0.68972	  0.65396	 -0.00308	  1.26818	704.70300	 24.10	
  5.096	 -9.576	  1.27422	  0.87644	  0.48266	  0.62837	  0.72093	 -0.00411	  1.27363	704.78198	 24.10	
  5.089	-28.397	  1.27033	  0.85095	  0.50035	  0.57192	  0.77986	 -0.00546	  1.27234	704.73700	 24.10	
  5.094	-47.331	  1.27237	  0.81204	  0.53686	  0.52779	  0.83475	 -0.00542	  1.27536	704.72803	 24.10	
  5.104	-66.290	  1.27423	  0.75886	  0.58806	  0.49657	  0.87427	 -0.00635	  1.27837	704.68903	 24.10	
  5.093	-85.207	  1.26881	  0.69312	  0.64580	  0.48260	  0.88818	 -0.00637	  1.27396	704.72900	 24.10	
  5.105	-104.191	  1.26593	  0.62978	  0.70850	  0.48698	  0.88178	 -0.00482	  1.27254	704.78400	 24.10	
  5.095	-123.033	  1.26810	  0.57698	  0.76814	  0.51177	  0.85533	 -0.00322	  1.27344	704.74298	 24.10	
  5.109	-142.013	  1.27032	  0.53558	  0.81891	  0.55182	  0.81156	 -0.00255	  1.27498	704.77698	 24.10	
  5.099	-161.165	  1.26938	  0.50922	  0.84980	  0.60427	  0.75169	 -0.00238	  1.27288	704.68701	 24.10	
  5.100	180.000	  1.26697	  0.49919	  0.85856	  0.66208	  0.68709	 -0.00167	  1.26991	704.80499	 24.10	
  6.800	180.000	  1.25803	  0.42766	  0.91818	  0.65214	  0.67723	 -0.00818	  1.27289	704.68597	 24.10	
  6.796	-166.229	  1.25868	  0.43380	  0.91185	  0.59323	  0.74004	 -0.00817	  1.27472	704.76801	 24.10	
  6.808	-152.311	  1.25451	  0.45069	  0.88698	  0.53641	  0.79817	 -0.00883	  1.27218	704.83899	 24.10	
  6.795	-138.383	  1.25110	  0.48014	  0.84712	  0.48707	  0.85000	 -0.01039	  1.26912	704.93701	 24.10	
  6.792	-124.591	  1.24897	  0.52119	  0.79718	  0.44877	  0.89323	 -0.01099	  1.26787	704.77698	 24.10	
  6.787	-110.754	  1.25406	  0.57372	  0.74327	  0.42464	  0.92705	 -0.01192	  1.27274	704.71997	 24.10	
  6.800	-96.985	  1.24972	  0.62939	  0.67988	  0.40961	  0.93919	 -0.01420	  1.26888	704.75201	 24.10	
  6.800	-83.015	  1.25019	  0.69208	  0.61566	  0.40817	  0.93859	 -0.01397	  1.26815	704.71997	 24.10	
  6.787	-69.246	  1.25277	  0.75404	  0.55861	  0.42148	  0.92417	 -0.01408	  1.26904	704.71399	 24.10	
  6.792	-55.409	  1.25328	  0.81103	  0.50585	  0.44587	  0.89296	 -0.01528	  1.26857	704.69800	 24.10	
  6.795	-41.617	  1.25833	  0.86304	  0.46404	  0.48349	  0.85246	 -0.01458	  1.27248	704.88300	 24.10	
  6.808	-27.689	  1.26002	  0.90179	  0.43187	  0.53178	  0.79801	 -0.01436	  1.27191	704.83502	 24.10	
  6.796	-13.771	  1.26547	  0.92904	  0.41309	  0.58846	  0.73994	 -0.01383	  1.27767	704.82098	 24.10	
  6.800	  0.000	  1.26178	  0.93448	  0.40463	  0.64617	  0.67539	 -0.01312	  1.27116	704.65503	 24.10	
  6.796	 13.771	  1.26708	  0.93050	  0.41324	  0.71052	  0.61698	 -0.01092	  1.27494	704.80402	 24.10	
  6.808	 27.689	  1.26616	  0.90670	  0.43132	  0.76993	  0.56010	 -0.00901	  1.27282	704.87500	 24.10	
  6.795	 41.617	  1.26899	  0.87085	  0.46482	  0.82532	  0.51452	 -0.00854	  1.27488	704.78802	 24.10	
  6.792	 55.409	  1.26711	  0.82053	  0.50631	  0.86730	  0.47625	 -0.00776	  1.27241	704.70898	 24.10	
  6.787	 69.246	  1.26466	  0.76275	  0.55744	  0.89756	  0.45045	 -0.00671	  1.26999	704.64203	 24.10	
  6.800	 83.015	  1.27097	  0.70552	  0.61814	  0.91889	  0.43970	 -0.00681	  1.27534	704.75702	 24.20	
  6.800	 96.985	  1.26943	  0.64235	  0.68060	  0.91926	  0.44006	 -0.00731	  1.27559	704.66699	 24.20	
  6.787	110.754	  1.26747	  0.58435	  0.74028	  0.90243	  0.45322	 -0.00717	  1.27340	704.74200	 24.10	
  6.792	124.591	  1.26734	  0.53255	  0.79910	  0.87256	  0.47871	 -0.00753	  1.27500	704.82703	 24.20	
  6.795	138.383	  1.26888	  0.49056	  0.85134	  0.83138	  0.51778	 -0.00831	  1.27846	704.85498	 24.20	
  6.808	152.311	  1.26452	  0.45660	  0.88792	  0.77633	  0.56322	 -0.00784	  1.27495	704.73102	 24.20	
  6.796	166.229	  1.25768	  0.43510	  0.90761	  0.71341	  0.61633	 -0.00788	  1.26929	704.71198	 24.20	
  8.491	168.704	  1.24455	  0.36060	  0.96578	  0.70328	  0.60069	 -0.01676	  1.27400	704.72803	 24.20	
  8.502	157.493	  1.24297	  0.37560	  0.94387	  0.76274	  0.54221	 -0.01572	  1.27055	704.64398	 24.20	
  8.494	146.194	  1.24519	  0.40235	  0.91141	  0.82073	  0.49055	 -0.01560	  1.26988	704.69702	 24.20	
  8.495	135.039	  1.24963	  0.43982	  0.87005	  0.87411	  0.44655	 -0.01669	  1.27329	704.70099	 24.20	
  8.487	123.723	  1.25314	  0.48626	  0.81878	  0.91878	  0.41075	 -0.01596	  1.27516	704.76202	 24.20	
  8.492	112.575	  1.25491	  0.53840	  0.76005	  0.94973	  0.38457	 -0.01479	  1.27509	704.80402	 24.20	
  8.510	101.220	  1.25432	  0.59584	  0.69636	  0.96860	  0.36733	 -0.01615	  1.27339	704.71100	 24.20	
  8.500	 90.000	  1.25482	  0.65862	  0.63230	  0.97362	  0.36282	 -0.01541	  1.27276	704.73401	 24.20	
  8.510	 78.780	  1.25900	  0.72388	  0.57115	  0.96945	  0.36782	 -0.01521	  1.27709	704.65503	 24.20	
  8.492	 67.425	  1.25325	  0.78236	  0.51012	  0.94419	  0.38238	 -0.01342	  1.27222	704.78003	 24.20	
  8.487	 56.277	  1.25430	  0.84040	  0.45920	  0.91247	  0.40861	 -0.01538	  1.27311	704.71997	 24.20	
  8.495	 44.961	  1.25211	  0.89147	  0.41319	  0.86822	  0.44398	 -0.01647	  1.27118	704.73700	 24.20	
  8.494	 33.806	  1.25557	  0.93543	  0.37860	  0.81865	  0.49011	 -0.01627	  1.27638	704.74200	 24.20	
  8.502	 22.507	  1.25327	  0.96666	  0.35164	  0.75923	  0.54197	 -0.01747	  1.27546	704.70300	 24.20	
  8.491	 11.296	  1.24845	  0.98180	  0.33507	  0.69436	  0.59780	 -0.02063	  1.27114	704.75403	 24.20	
  8.500	  0.000	  1.25057	  0.99106	  0.33058	  0.63197	  0.66246	 -0.02246	  1.27517	704.62799	 24.20	
  8.491	-11.296	  1.24635	  0.98078	  0.33661	  0.56904	  0.72499	 -0.02119	  1.27193	704.72900	 24.20	
  8.502	-22.507	  1.24518	  0.96071	  0.35234	  0.51132	  0.78749	 -0.02218	  1.27235	704.74902	 24.20	
  8.494	-33.806	  1.24316	  0.92730	  0.37931	  0.45856	  0.84645	 -0.02205	  1.27232	704.73700	 24.20	
  8.495	-44.961	  1.24127	  0.88426	  0.41478	  0.41434	  0.89758	 -0.02411	  1.27206	704.70398	 24.20	
  8.487	-56.277	  1.24316	  0.83325	  0.46225	  0.38059	  0.94224	 -0.02446	  1.27617	704.68903	 24.20	
  8.492	-67.425	  1.23581	  0.77208	  0.51236	  0.35410	  0.97003	 -0.02365	  1.26956	704.73401	 24.20	
  8.510	-78.780	  1.23772	  0.71109	  0.57215	  0.33886	  0.99255	 -0.02430	  1.27341	704.68701	 24.20	
  8.500	-90.000	  1.23304	  0.64559	  0.63386	  0.33464	  0.99674	 -0.02370	  1.26922	704.79901	 24.20	
  8.510	-101.220	  1.23117	  0.58314	  0.69650	  0.33880	  0.98969	 -0.02281	  1.26879	704.65503	 24.20	
  8.492	-112.575	  1.23658	  0.52798	  0.76228	  0.35812	  0.97378	 -0.02054	  1.27410	704.73700	 24.20	
  8.487	-123.723	  1.23216	  0.47444	  0.81697	  0.38325	  0.93848	 -0.01844	  1.26935	704.69501	 24.20	
  8.495	-135.039	  1.23591	  0.43099	  0.87153	  0.41894	  0.89916	 -0.01800	  1.27329	704.71198	 24.20	
  8.494	-146.194	  1.23535	  0.39560	  0.91360	  0.46348	  0.84666	 -0.01628	  1.27088	704.64099	 24.20	
  8.502	-157.493	  1.23777	  0.37089	  0.94650	  0.51776	  0.78851	 -0.01602	  1.27232	704.61798	 24.20	
  8.491	-168.704	  1.23676	  0.35647	  0.96367	  0.57448	  0.72547	 -0.01618	  1.26991	704.75201	 24.20	
  8.500	180.000	  1.24198	  0.35284	  0.97277	  0.63826	  0.66363	 -0.01697	  1.27329	704.68597	 24.20	
 10.200	180.000	  1.21685	  0.27623	  1.02048	  0.61896	  0.64368	 -0.02622	  1.26976	704.72601	 24.20	
 10.191	-170.497	  1.21918	  0.28009	  1.01834	  0.55764	  0.71002	 -0.02525	  1.27394	704.76599	 24.20	
 10.210	-161.034	  1.21667	  0.29170	  1.00168	  0.49777	  0.77310	 -0.02467	  1.27307	704.70099	 24.20	
 10.194	-151.526	  1.21200	  0.31246	  0.97040	  0.44051	  0.83202	 -0.02503	  1.26973	704.73901	 24.20	
 10.190	-142.105	  1.21279	  0.34225	  0.93475	  0.39165	  0.88951	 -0.02682	  1.27237	704.67999	 24.20	
 10.215	-132.646	  1.20841	  0.37840	  0.88667	  0.34894	  0.93585	 -0.02751	  1.26796	704.82898	 24.20	
 10.203	-123.092	  1.21098	  0.42503	  0.83432	  0.31441	  0.98069	 -0.02856	  1.27208	704.67200	 24.20	
 10.192	-113.678	  1.20979	  0.47605	  0.77514	  0.28800	  1.01171	 -0.02976	  1.27136	704.73901	 24.20	
 10.208	-104.249	  1.20567	  0.53131	  0.70983	  0.26836	  1.03015	 -0.03185	  1.26637	704.84698	 24.20	
 10.210	-94.801	  1.21669	  0.59688	  0.65151	  0.26024	  1.05173	 -0.03437	  1.27705	704.75897	 24.20	
 10.210	-85.199	  1.21296	  0.65958	  0.58343	  0.25854	  1.04786	 -0.03467	  1.27195	704.69501	 24.20	
 10.208	-75.751	  1.21596	  0.72387	  0.52319	  0.26652	  1.03794	 -0.03559	  1.27481	704.76001	 24.20	
 10.192	-66.322	  1.21530	  0.78551	  0.46459	  0.28485	  1.01222	 -0.03488	  1.27108	704.87799	 24.20	
 10.203	-56.908	  1.22051	  0.84742	  0.41286	  0.31160	  0.98285	 -0.03486	  1.27527	704.72498	 24.20	
 10.215	-47.354	  1.21853	  0.89962	  0.36401	  0.34441	  0.93761	 -0.03400	  1.27126	704.85498	 24.20	
 10.190	-37.895	  1.22105	  0.94654	  0.32629	  0.38611	  0.88887	 -0.03366	  1.27249	704.88599	 24.20	
 10.194	-28.474	  1.22069	  0.98284	  0.29491	  0.43398	  0.83083	 -0.03103	  1.27046	704.64697	 24.20	
 10.210	-18.966	  1.21932	  1.01007	  0.27099	  0.48740	  0.76762	 -0.03101	  1.26690	704.82703	 24.20	
 10.191	 -9.503	  1.22366	  1.02914	  0.25907	  0.54774	  0.70626	 -0.02963	  1.26896	704.70599	 24.20	
 10.200	  0.000	  1.22831	  1.03833	  0.25505	  0.61196	  0.64365	 -0.03129	  1.27321	704.72803	 24.20	
 10.191	  9.503	  1.22912	  1.03308	  0.25893	  0.67646	  0.58012	 -0.03107	  1.27112	704.74500	 24.20	
 10.210	 18.966	  1.22864	  1.01606	  0.27075	  0.73844	  0.51983	 -0.02731	  1.26923	704.78802	 24.30	
 10.194	 28.474	  1.23584	  0.99347	  0.29452	  0.80369	  0.46710	 -0.02581	  1.27508	704.92902	 24.30	
 10.190	 37.895	  1.23227	  0.95299	  0.32355	  0.85762	  0.41586	 -0.02592	  1.27050	704.83801	 24.20	
 10.215	 47.354	  1.23453	  0.90980	  0.36182	  0.90958	  0.37361	 -0.02536	  1.27172	704.84198	 24.30	
 10.203	 56.908	  1.23503	  0.85655	  0.40849	  0.95239	  0.34013	 -0.02414	  1.27255	704.69702	 24.20	
 10.192	 66.322	  1.23786	  0.79947	  0.46247	  0.98678	  0.31529	 -0.02348	  1.27387	704.89502	 24.30	
 10.208	 75.751	  1.23848	  0.73866	  0.51997	  1.01171	  0.29742	 -0.02363	  1.27578	704.76001	 24.20	
 10.210	 85.199	  1.23357	  0.67181	  0.57974	  1.02007	  0.28828	 -0.02417	  1.26987	704.74597	 24.20	
 10.210	 94.801	  1.23803	  0.60925	  0.64713	  1.02471	  0.28885	 -0.02476	  1.27468	704.91101	 24.20	
 10.208	104.249	  1.23638	  0.54764	  0.71085	  1.01395	  0.29830	 -0.02424	  1.27443	704.65002	 24.30	
 10.192	113.678	  1.23856	  0.49205	  0.77612	  0.99387	  0.31738	 -0.02421	  1.27703	704.67200	 24.30	
 10.203	123.092	  1.23474	  0.43794	  0.83415	  0.96058	  0.34200	 -0.02537	  1.27495	704.86700	 24.30	
 10.215	132.646	  1.22914	  0.38904	  0.88629	  0.91607	  0.37483	 -0.02672	  1.27106	704.79901	 24.20	
 10.190	142.105	  1.22681	  0.35052	  0.93300	  0.86614	  0.41774	 -0.02481	  1.27127	704.78497	 24.20	
 10.194	151.526	  1.22881	  0.32052	  0.97416	  0.81211	  0.46899	 -0.02491	  1.27522	704.98999	 24.20	
 10.210	161.034	  1.22238	  0.29666	  0.99985	  0.74888	  0.52190	 -0.02383	  1.27220	704.88599	 24.20	
 10.191	170.497	  1.22685	  0.28309	  1.02169	  0.68818	  0.58441	 -0.02604	  1.27763	704.87201	 24.20	
 11.899	171.783	  1.19820	  0.20698	  1.06652	  0.66690	  0.56204	 -0.03571	  1.27546	704.86298	 24.20	
 11.890	163.610	  1.19812	  0.21905	  1.05012	  0.72968	  0.50092	 -0.03442	  1.27290	704.92297	 24.20	
 11.889	155.445	  1.19975	  0.23928	  1.02433	  0.79134	  0.44471	 -0.03353	  1.27126	704.83002	 24.20	
 11.909	147.299	  1.20306	  0.26506	  0.99285	  0.85257	  0.39189	 -0.03508	  1.27412	704.78400	 24.30	
 11.902	139.148	  1.20754	  0.30000	  0.95248	  0.90843	  0.34664	 -0.03547	  1.27526	704.80499	 24.30	
 11.894	130.867	  1.20512	  0.34059	  0.89782	  0.95212	  0.30606	 -0.03672	  1.26998	704.71198	 24.30	
 11.897	122.732	  1.21170	  0.38819	  0.84681	  0.99810	  0.27330	 -0.03580	  1.27597	704.86902	 24.30	
 11.903	114.597	  1.21252	  0.44028	  0.78697	  1.03103	  0.24668	 -0.03482	  1.27509	704.85999	 24.30	
 11.893	106.346	  1.21509	  0.49819	  0.72301	  1.05536	  0.22788	 -0.03456	  1.27590	704.86102	 24.30	
 11.892	 98.155	  1.21387	  0.55774	  0.65729	  1.06778	  0.21539	 -0.03562	  1.27385	704.95697	 24.30	
 11.900	 90.000	  1.21003	  0.61812	  0.59013	  1.06837	  0.21078	 -0.03552	  1.26935	704.91101	 24.30	
 11.892	 81.845	  1.21020	  0.68188	  0.52705	  1.06201	  0.21493	 -0.03472	  1.26851	704.93103	 24.30	
 11.893	 73.654	  1.21453	  0.74849	  0.46821	  1.04954	  0.22680	 -0.03313	  1.27268	704.96301	 24.30	
 11.903	 65.403	  1.21429	  0.81142	  0.41006	  1.02527	  0.24515	 -0.03324	  1.27435	705.04102	 24.30	
 11.897	 57.268	  1.21514	  0.87095	  0.35861	  0.99137	  0.27146	 -0.03415	  1.27500	704.86401	 24.30	
 11.894	 49.133	  1.21496	  0.92514	  0.31234	  0.94911	  0.30502	 -0.03368	  1.27565	704.80798	 24.30	
 11.902	 40.852	  1.20844	  0.96862	  0.27025	  0.89605	  0.34315	 -0.03446	  1.26926	704.61298	 24.30	
 11.909	 32.701	  1.20858	  1.01021	  0.23808	  0.84132	  0.38972	 -0.03437	  1.27169	704.76001	 24.30	
 11.889	 24.555	  1.20838	  1.04230	  0.21364	  0.78182	  0.44331	 -0.03537	  1.27257	704.83197	 24.30	
 11.890	 16.390	  1.20832	  1.06678	  0.19488	  0.72042	  0.49957	 -0.03768	  1.27336	704.75403	 24.30	
 11.899	  8.217	  1.20667	  1.08047	  0.18345	  0.65679	  0.55946	 -0.04093	  1.27350	704.76501	 24.30	
 11.900	  0.000	  1.20716	  1.08666	  0.17938	  0.59218	  0.62409	 -0.04105	  1.27602	704.83899	 24.30	
 11.899	 -8.217	  1.20356	  1.07917	  0.18308	  0.52789	  0.68785	 -0.04088	  1.27408	704.71997	 24.30	
 11.890	-16.390	  1.20414	  1.06525	  0.19530	  0.46979	  0.75255	 -0.04006	  1.27703	704.65900	 24.30	
 11.889	-24.555	  1.20252	  1.04035	  0.21523	  0.41281	  0.81637	 -0.04047	  1.27690	704.69397	 24.30	
 11.909	-32.701	  1.19607	  1.00296	  0.24069	  0.35951	  0.87267	 -0.04113	  1.27220	704.70300	 24.30	
 11.902	-40.852	  1.19631	  0.96264	  0.27506	  0.31562	  0.92755	 -0.04405	  1.27406	704.79303	 24.30	
 11.894	-49.133	  1.19444	  0.91251	  0.31569	  0.27533	  0.97671	 -0.04523	  1.27460	704.63300	 24.30	
 11.897	-57.268	  1.19233	  0.85683	  0.36141	  0.24153	  1.01850	 -0.04479	  1.27423	704.69702	 24.30	
 11.903	-65.403	  1.19098	  0.79742	  0.41442	  0.21530	  1.05234	 -0.04335	  1.27475	704.69800	 24.30	
 11.893	-73.654	  1.19037	  0.73410	  0.47272	  0.19852	  1.07639	 -0.04437	  1.27585	704.83002	 24.30	
 11.892	-81.845	  1.18818	  0.66984	  0.53316	  0.18788	  1.09026	 -0.04427	  1.27442	704.78198	 24.30	
 11.900	-90.000	  1.18915	  0.60572	  0.59766	  0.18485	  1.09731	 -0.04434	  1.27777	704.80798	 24.30	
 11.892	-98.155	  1.18765	  0.54315	  0.66147	  0.18908	  1.09145	 -0.04273	  1.27512	704.82098	 24.30	
 11.893	-106.346	  1.18660	  0.48274	  0.72611	  0.20070	  1.07712	 -0.04269	  1.27571	704.70099	 24.30	
 11.903	-114.597	  1.18280	  0.42434	  0.78750	  0.21900	  1.05034	 -0.03968	  1.27163	704.77698	 24.30	
 11.897	-122.732	  1.18628	  0.37433	  0.84862	  0.24626	  1.02047	 -0.03879	  1.27556	704.84998	 24.30	
 11.894	-130.867	  1.18447	  0.32940	  0.90123	  0.28043	  0.97665	 -0.03695	  1.27356	704.81500	 24.30	
 11.902	-139.148	  1.18141	  0.28875	  0.94729	  0.32086	  0.92447	 -0.03535	  1.26860	704.95599	 24.30	
 11.909	-147.299	  1.18441	  0.25634	  0.99133	  0.36618	  0.87279	 -0.03514	  1.27012	704.99597	 24.30	
 11.889	-155.445	  1.18317	  0.23160	  1.02075	  0.41778	  0.81177	 -0.03527	  1.26739	704.79602	 24.30	
 11.890	-163.610	  1.19304	  0.21513	  1.05250	  0.47757	  0.75454	 -0.03572	  1.27625	704.82098	 24.30	
 11.899	-171.783	  1.19411	  0.20434	  1.06653	  0.53780	  0.68986	 -0.03602	  1.27508	704.86298	 24.30	
 11.900	180.000	  1.19286	  0.20168	  1.06805	  0.60021	  0.62430	 -0.03600	  1.27040	704.79303	 24.30	
 13.600	180.000	  1.16316	  0.12702	  1.11152	  0.57701	  0.60090	 -0.04620	  1.27354	704.87000	 24.30	
 13.608	-172.853	  1.15868	  0.12821	  1.10527	  0.51369	  0.66237	 -0.04670	  1.27166	704.95300	 24.30	
 13.611	-165.583	  1.16293	  0.13748	  1.09802	  0.45452	  0.73041	 -0.04614	  1.27791	704.92603	 24.30	
 13.601	-158.353	  1.15583	  0.15335	  1.07119	  0.39439	  0.79149	 -0.04500	  1.27049	704.83502	 24.30	
 13.609	-151.210	  1.16009	  0.17516	  1.04657	  0.34276	  0.85560	 -0.04502	  1.27816	704.91699	 24.30	
 13.611	-143.999	  1.15868	  0.20228	  1.00996	  0.29382	  0.91256	 -0.04573	  1.27907	704.90302	 24.30	
 13.601	-136.825	  1.15212	  0.23518	  0.96045	  0.24759	  0.96123	 -0.04601	  1.27219	704.81897	 24.30	
 13.596	-129.640	  1.15169	  0.27583	  0.91045	  0.21008	  1.00898	 -0.04685	  1.27269	704.89502	 24.30	
