FileType=PCF
NHL=14
Date=08/29/17	15:22:10
Facility=APL
Serial=16328-15
Customer=NASA
NP=6
Mach=0.100000
Calibration=1:1
CalPts=490
TstPts=95
PortNumbering=AP Standard
Units=Torr C m/s kg/m^3 deg mm 
Theta[deg]	Phi[deg]	P1[Torr]	P2[Torr]	P3[Torr]	P4[Torr]	P5[Torr]	P6[Torr]	Pt[Torr]	Ps[Abs,Torr]	Ts[C]	
  0.000	  0.000	  4.94229	  2.65479	  2.59182	  2.60267	  2.67757	  0.03303	  4.93998	704.43597	 23.50	
  1.691	128.401	  4.93415	  2.50572	  2.71391	  2.75112	  2.50115	  0.03048	  4.93026	704.51099	 23.50	
  1.692	 77.194	  4.95148	  2.69916	  2.53641	  2.81585	  2.45699	  0.03074	  4.95065	704.45801	 23.50	
  1.699	 26.182	  4.95322	  2.85876	  2.37599	  2.67448	  2.56103	  0.02603	  4.95041	704.21399	 23.50	
  1.699	-26.182	  4.94475	  2.84711	  2.36434	  2.47013	  2.75667	  0.02142	  4.94557	704.46698	 23.50	
  1.692	-77.194	  4.95069	  2.68020	  2.51591	  2.36570	  2.89342	  0.02263	  4.95152	704.27197	 23.50	
  1.691	-128.401	  4.93885	  2.48517	  2.70926	  2.41375	  2.83641	  0.02453	  4.93992	704.34100	 23.50	
  1.700	180.000	  4.94591	  2.42665	  2.81058	  2.60120	  2.66157	  0.02968	  4.94337	704.34003	 23.50	
  3.400	180.000	  4.93182	  2.14408	  3.05142	  2.55036	  2.63046	  0.01320	  4.94150	704.23297	 23.50	
  3.388	-152.325	  4.92737	  2.18681	  2.98919	  2.32973	  2.86398	  0.01074	  4.94126	704.32703	 23.50	
  3.397	-124.529	  4.93233	  2.32628	  2.82971	  2.16872	  3.05303	  0.00798	  4.94807	704.37598	 23.50	
  3.399	-96.763	  4.93840	  2.54395	  2.60118	  2.08757	  3.14764	  0.00524	  4.95354	704.28900	 23.50	
  3.394	-69.283	  4.94132	  2.78416	  2.36806	  2.11305	  3.11568	  0.00393	  4.95625	704.36499	 23.50	
  3.400	-41.398	  4.95729	  3.00124	  2.18596	  2.23850	  2.97889	  0.00400	  4.96671	704.43903	 23.50	
  3.401	-14.021	  4.93357	  3.10430	  2.07589	  2.41733	  2.74954	  0.00562	  4.94066	704.38501	 23.50	
  3.401	 14.021	  4.96280	  3.12508	  2.08750	  2.67288	  2.51900	  0.01088	  4.96555	704.31799	 23.50	
  3.400	 41.398	  4.94094	  2.99553	  2.17935	  2.87677	  2.31131	  0.01169	  4.94199	704.34802	 23.50	
  3.394	 69.283	  4.95215	  2.79667	  2.36993	  3.02618	  2.20163	  0.01567	  4.95197	704.43903	 23.50	
  3.399	 96.763	  4.96022	  2.56503	  2.60149	  3.06733	  2.18657	  0.01637	  4.96136	704.42798	 23.50	
  3.397	124.529	  4.95539	  2.35380	  2.82792	  2.97631	  2.25666	  0.01700	  4.95882	704.45300	 23.40	
  3.388	152.325	  4.94756	  2.20819	  2.99248	  2.78872	  2.41415	  0.01711	  4.95262	704.38000	 23.50	
  5.099	161.165	  4.93077	  1.91292	  3.25967	  2.77977	  2.36830	  0.00022	  4.96218	704.33502	 23.50	
  5.109	142.013	  4.93202	  2.01997	  3.12837	  3.00592	  2.15614	 -0.00074	  4.95433	704.42102	 23.50	
  5.095	123.033	  4.93891	  2.19357	  2.93002	  3.17902	  2.00707	 -0.00005	  4.95759	704.51703	 23.50	
  5.105	104.191	  4.94533	  2.41437	  2.69719	  3.28930	  1.91904	 -0.00212	  4.96256	704.40698	 23.50	
  5.093	 85.207	  4.94039	  2.65732	  2.44130	  3.30324	  1.89728	 -0.00125	  4.95358	704.24103	 23.50	
  5.104	 66.290	  4.94562	  2.90523	  2.21044	  3.23830	  1.94813	 -0.00064	  4.95930	704.26703	 23.50	
  5.094	 47.331	  4.93986	  3.11896	  2.01231	  3.08647	  2.07030	 -0.00438	  4.95674	704.36200	 23.50	
  5.089	 28.397	  4.93335	  3.27390	  1.87172	  2.87855	  2.24575	 -0.00650	  4.95031	704.32098	 23.50	
  5.096	  9.576	  4.93026	  3.36252	  1.79777	  2.63803	  2.47662	 -0.01145	  4.95513	704.35498	 23.50	
  5.096	 -9.576	  4.93960	  3.36551	  1.80097	  2.38900	  2.73819	 -0.01234	  4.96335	704.32397	 23.50	
  5.089	-28.397	  4.93583	  3.27575	  1.87748	  2.16788	  2.97969	 -0.01634	  4.96739	704.46600	 23.50	
  5.094	-47.331	  4.91309	  3.10038	  2.01170	  1.97577	  3.17757	 -0.01943	  4.95262	704.43799	 23.50	
  5.104	-66.290	  4.90861	  2.88106	  2.20749	  1.85235	  3.32442	 -0.01980	  4.95189	704.45801	 23.50	
  5.093	-85.207	  4.90597	  2.63217	  2.44700	  1.80193	  3.39287	 -0.01760	  4.95292	704.50897	 23.50	
  5.105	-104.191	  4.91384	  2.38759	  2.70599	  1.82664	  3.37810	 -0.01543	  4.96514	704.50598	 23.50	
  5.095	-123.033	  4.90449	  2.16946	  2.93648	  1.91841	  3.26378	 -0.00865	  4.95571	704.37701	 23.50	
  5.109	-142.013	  4.90772	  2.00183	  3.13178	  2.07504	  3.08466	 -0.00493	  4.95552	704.54199	 23.50	
  5.099	-161.165	  4.90964	  1.89628	  3.25952	  2.28422	  2.85315	 -0.00145	  4.95299	704.45502	 23.50	
  5.100	180.000	  4.91264	  1.86447	  3.29981	  2.52266	  2.60411	 -0.00099	  4.94887	704.36603	 23.50	
  6.800	180.000	  4.86312	  1.57335	  3.52840	  2.47687	  2.56051	 -0.03133	  4.94958	704.46100	 23.50	
  6.796	-166.229	  4.85159	  1.59442	  3.49140	  2.23637	  2.79817	 -0.02813	  4.93957	704.37701	 23.50	
  6.808	-152.311	  4.86087	  1.66696	  3.41176	  2.02135	  3.04330	 -0.03252	  4.95443	704.33698	 23.50	
  6.795	-138.383	  4.85136	  1.79166	  3.25734	  1.82663	  3.25505	 -0.03607	  4.95095	704.32397	 23.50	
  6.792	-124.591	  4.84371	  1.95660	  3.05984	  1.67224	  3.42586	 -0.03761	  4.94582	704.32703	 23.50	
  6.787	-110.754	  4.83992	  2.15995	  2.83069	  1.56905	  3.54300	 -0.04541	  4.94442	704.28998	 23.50	
  6.800	-96.985	  4.86116	  2.39890	  2.59715	  1.51918	  3.61974	 -0.05145	  4.96285	704.23700	 23.50	
  6.800	-83.015	  4.85007	  2.64195	  2.33911	  1.51233	  3.60894	 -0.05336	  4.95109	704.47601	 23.50	
  6.787	-69.246	  4.86067	  2.88759	  2.10813	  1.56387	  3.54966	 -0.05251	  4.95740	704.55499	 23.50	
  6.792	-55.409	  4.86313	  3.11429	  1.89824	  1.66138	  3.42566	 -0.05272	  4.95123	704.36902	 23.50	
  6.795	-41.617	  4.86427	  3.30717	  1.72481	  1.80813	  3.24925	 -0.05261	  4.94607	704.43402	 23.50	
  6.808	-27.689	  4.87635	  3.46565	  1.59489	  1.99942	  3.03656	 -0.04796	  4.95161	704.45898	 23.50	
  6.796	-13.771	  4.87460	  3.55677	  1.51520	  2.21724	  2.79237	 -0.04383	  4.94394	704.40002	 23.50	
  6.800	  0.000	  4.88354	  3.59529	  1.48917	  2.45590	  2.55135	 -0.04552	  4.94796	704.42102	 23.50	
  6.796	 13.771	  4.90186	  3.57677	  1.51944	  2.71191	  2.31642	 -0.03934	  4.96004	704.50000	 23.50	
  6.808	 27.689	  4.90295	  3.48431	  1.59543	  2.94973	  2.09110	 -0.03552	  4.95903	704.28101	 23.50	
  6.795	 41.617	  4.91203	  3.33946	  1.72866	  3.16297	  1.90988	 -0.03333	  4.96115	704.35498	 23.50	
  6.792	 55.409	  4.89746	  3.13648	  1.89426	  3.33028	  1.75606	 -0.02842	  4.94605	704.45001	 23.50	
  6.787	 69.246	  4.90704	  2.91583	  2.10232	  3.46123	  1.65857	 -0.02621	  4.95470	704.49200	 23.50	
  6.800	 83.015	  4.90401	  2.67368	  2.33108	  3.52659	  1.60593	 -0.02849	  4.95433	704.36902	 23.50	
  6.800	 96.985	  4.90762	  2.42990	  2.58317	  3.53366	  1.60983	 -0.03054	  4.95417	704.40503	 23.50	
  6.787	110.754	  4.90326	  2.19978	  2.82649	  3.47121	  1.66224	 -0.02690	  4.95507	704.39001	 23.50	
  6.792	124.591	  4.90053	  1.99400	  3.05633	  3.35196	  1.76695	 -0.02707	  4.95766	704.35199	 23.50	
  6.795	138.383	  4.89747	  1.82139	  3.25365	  3.18208	  1.91748	 -0.02774	  4.95960	704.43903	 23.50	
  6.808	152.311	  4.86945	  1.68125	  3.39702	  2.95799	  2.09430	 -0.02345	  4.93764	704.31799	 23.50	
  6.796	166.229	  4.88625	  1.60921	  3.50351	  2.73548	  2.32384	 -0.02784	  4.96311	704.34302	 23.50	
  8.491	168.704	  4.81009	  1.30596	  3.71888	  2.67942	  2.25556	 -0.06146	  4.95281	704.34497	 23.50	
  8.502	157.493	  4.81872	  1.37163	  3.64145	  2.92585	  2.02440	 -0.05704	  4.95347	704.42200	 23.50	
  8.494	146.194	  4.83001	  1.48266	  3.51332	  3.15751	  1.81834	 -0.05923	  4.95592	704.51099	 23.50	
  8.495	135.039	  4.83218	  1.62409	  3.33745	  3.35740	  1.63691	 -0.06604	  4.95055	704.53998	 23.50	
  8.487	123.723	  4.84773	  1.81117	  3.13510	  3.53529	  1.49543	 -0.06452	  4.96084	704.38501	 23.50	
  8.492	112.575	  4.85961	  2.02029	  2.90722	  3.66347	  1.39401	 -0.06267	  4.96367	704.31403	 23.50	
  8.510	101.220	  4.83801	  2.24455	  2.64331	  3.72174	  1.32106	 -0.06596	  4.94155	704.41602	 23.50	
  8.500	 90.000	  4.85521	  2.49651	  2.39866	  3.75428	  1.30528	 -0.06823	  4.95582	704.38800	 23.50	
  8.510	 78.780	  4.86541	  2.75419	  2.15197	  3.73270	  1.32313	 -0.06397	  4.96352	704.40503	 23.50	
  8.492	 67.425	  4.86451	  3.00205	  1.91664	  3.64670	  1.39000	 -0.05757	  4.96298	704.40503	 23.50	
  8.487	 56.277	  4.85928	  3.22596	  1.70837	  3.51707	  1.48920	 -0.06104	  4.95773	704.29797	 23.50	
  8.495	 44.961	  4.84997	  3.42598	  1.52469	  3.33742	  1.62954	 -0.06616	  4.95120	704.42700	 23.50	
  8.494	 33.806	  4.85766	  3.59958	  1.38378	  3.13714	  1.81284	 -0.06834	  4.96365	704.45300	 23.50	
  8.502	 22.507	  4.84024	  3.71507	  1.27399	  2.89853	  2.01400	 -0.07086	  4.95147	704.44501	 23.50	
  8.491	 11.296	  4.82758	  3.78107	  1.21221	  2.64868	  2.24086	 -0.07872	  4.94309	704.47803	 23.50	
  8.500	  0.000	  4.82701	  3.80983	  1.19152	  2.39553	  2.49412	 -0.08254	  4.95197	704.42798	 23.50	
  8.491	-11.296	  4.82121	  3.77821	  1.21577	  2.15027	  2.74574	 -0.08049	  4.95128	704.41901	 23.60	
  8.502	-22.507	  4.81985	  3.70239	  1.27958	  1.92155	  2.99393	 -0.08251	  4.95307	704.57898	 23.50	
  8.494	-33.806	  4.81387	  3.57086	  1.38773	  1.71213	  3.22902	 -0.08938	  4.95653	704.46198	 23.60	
  8.495	-44.961	  4.80525	  3.39780	  1.53257	  1.53394	  3.43393	 -0.09451	  4.95687	704.38800	 23.60	
  8.487	-56.277	  4.80989	  3.19514	  1.72082	  1.39919	  3.60971	 -0.09360	  4.96642	704.45801	 23.60	
  8.492	-67.425	  4.78726	  2.95436	  1.92316	  1.29202	  3.72280	 -0.09401	  4.95114	704.53998	 23.60	
  8.510	-78.780	  4.78698	  2.70830	  2.15910	  1.22914	  3.80868	 -0.09734	  4.95603	704.53101	 23.60	
  8.500	-90.000	  4.78860	  2.45786	  2.41170	  1.21414	  3.83698	 -0.09813	  4.96107	704.46997	 23.60	
  8.510	-101.220	  4.76377	  2.19959	  2.65391	  1.22991	  3.79532	 -0.08923	  4.93612	704.50897	 23.60	
  8.492	-112.575	  4.78188	  1.97787	  2.91271	  1.30483	  3.72868	 -0.07829	  4.95664	704.51703	 23.60	
  8.487	-123.723	  4.76701	  1.76880	  3.13438	  1.40708	  3.59423	 -0.07172	  4.94246	704.44702	 23.60	
  8.495	-135.039	  4.77763	  1.59346	  3.34611	  1.55134	  3.43301	 -0.07158	  4.94977	704.60999	 23.60	
  8.494	-146.194	  4.78263	  1.45570	  3.51576	  1.73361	  3.23192	 -0.06821	  4.95154	704.29797	 23.60	
  8.502	-157.493	  4.77947	  1.35204	  3.63650	  1.94231	  2.99309	 -0.06362	  4.94168	704.52600	 23.60	
  8.491	-168.704	  4.79823	  1.29760	  3.72252	  2.17842	  2.75517	 -0.06445	  4.95227	704.39001	 23.60	
  8.500	180.000	  4.80181	  1.27941	  3.74557	  2.42404	  2.50448	 -0.06588	  4.95006	704.55701	 23.60	
 10.200	180.000	  4.71270	  0.97513	  3.94511	  2.35285	  2.42834	 -0.10654	  4.94561	704.55402	 23.60	
 10.191	-170.497	  4.71458	  0.99370	  3.92944	  2.10687	  2.68720	 -0.10242	  4.95719	704.54199	 23.60	
 10.210	-161.034	  4.70973	  1.03894	  3.86450	  1.86942	  2.93785	 -0.10252	  4.95787	704.43799	 23.60	
 10.194	-151.526	  4.70341	  1.12785	  3.75272	  1.64651	  3.18210	 -0.10552	  4.95961	704.35797	 23.60	
 10.190	-142.105	  4.70692	  1.24707	  3.61081	  1.45080	  3.41083	 -0.10655	  4.96739	704.53998	 23.60	
 10.215	-132.646	  4.70142	  1.39366	  3.42966	  1.27986	  3.60551	 -0.10748	  4.96476	704.47302	 23.60	
 10.203	-123.092	  4.68713	  1.57335	  3.20558	  1.13518	  3.76308	 -0.10977	  4.95477	704.50000	 23.60	
 10.192	-113.678	  4.69341	  1.78257	  2.97461	  1.03008	  3.89626	 -0.11601	  4.96345	704.55499	 23.60	
 10.208	-104.249	  4.68273	  2.00275	  2.71927	  0.95034	  3.97598	 -0.12797	  4.95334	704.43799	 23.60	
 10.210	-94.801	  4.67745	  2.24327	  2.46094	  0.91145	  4.01445	 -0.13713	  4.94355	704.52399	 23.60	
 10.210	-85.199	  4.69659	  2.50931	  2.20955	  0.91294	  4.02729	 -0.13979	  4.96223	704.43103	 23.60	
 10.208	-75.751	  4.68834	  2.75578	  1.95778	  0.94345	  3.97233	 -0.13941	  4.94705	704.50000	 23.60	
 10.192	-66.322	  4.69700	  3.00511	  1.73068	  1.01633	  3.88258	 -0.13698	  4.94607	704.44702	 23.60	
 10.203	-56.908	  4.70875	  3.24390	  1.52221	  1.11851	  3.75816	 -0.13364	  4.95335	704.55200	 23.60	
 10.215	-47.354	  4.72056	  3.46472	  1.33424	  1.25654	  3.59531	 -0.13305	  4.95863	704.45203	 23.60	
 10.190	-37.895	  4.70313	  3.63021	  1.17659	  1.41723	  3.37972	 -0.12928	  4.93376	704.38800	 23.60	
 10.194	-28.474	  4.73997	  3.80484	  1.05870	  1.61924	  3.17848	 -0.12389	  4.96615	704.38800	 23.60	
 10.210	-18.966	  4.74169	  3.91484	  0.96536	  1.83842	  2.92929	 -0.11891	  4.95842	704.42200	 23.60	
 10.191	 -9.503	  4.74035	  3.97512	  0.91216	  2.06981	  2.67446	 -0.11898	  4.94537	704.38202	 23.60	
 10.200	  0.000	  4.74941	  4.00609	  0.89050	  2.32015	  2.42323	 -0.12122	  4.95121	704.35101	 23.60	
 10.191	  9.503	  4.75460	  3.98441	  0.90893	  2.57871	  2.16961	 -0.12115	  4.95113	704.38000	 23.60	
 10.210	 18.966	  4.76509	  3.92915	  0.96006	  2.83253	  1.93483	 -0.11380	  4.95566	704.49200	 23.60	
 10.194	 28.474	  4.76673	  3.81781	  1.04962	  3.07200	  1.71545	 -0.10547	  4.94838	704.41602	 23.60	
 10.190	 37.895	  4.76888	  3.67058	  1.17108	  3.29668	  1.51857	 -0.10474	  4.94756	704.50598	 23.60	
 10.215	 47.354	  4.77412	  3.49517	  1.32197	  3.50014	  1.34890	 -0.10083	  4.94652	704.47601	 23.60	
 10.203	 56.908	  4.78933	  3.29220	  1.51314	  3.67813	  1.21788	 -0.09396	  4.96123	704.52100	 23.60	
 10.192	 66.322	  4.78824	  3.05762	  1.72371	  3.80413	  1.11722	 -0.09004	  4.95545	704.57599	 23.60	
 10.208	 75.751	  4.78692	  2.81152	  1.94974	  3.89772	  1.04432	 -0.09791	  4.95510	704.45898	 23.60	
 10.210	 85.199	  4.79242	  2.56327	  2.19648	  3.95267	  1.00809	 -0.10595	  4.96466	704.48102	 23.60	
 10.210	 94.801	  4.79155	  2.30478	  2.45920	  3.95834	  1.00968	 -0.11113	  4.96343	704.45898	 23.60	
 10.208	104.249	  4.77937	  2.05572	  2.71066	  3.90650	  1.04606	 -0.10742	  4.95572	704.51398	 23.60	
 10.192	113.678	  4.78242	  1.83195	  2.96360	  3.82720	  1.12175	 -0.10228	  4.95992	704.38000	 23.70	
 10.203	123.092	  4.77299	  1.62101	  3.19805	  3.69855	  1.22317	 -0.10341	  4.95842	704.42200	 23.60	
 10.215	132.646	  4.76817	  1.43223	  3.41624	  3.53883	  1.35977	 -0.10235	  4.96168	704.45203	 23.70	
 10.190	142.105	  4.75126	  1.27758	  3.59273	  3.33098	  1.52824	 -0.09869	  4.95286	704.40503	 23.70	
 10.194	151.526	  4.74985	  1.15441	  3.74988	  3.11264	  1.72739	 -0.09265	  4.96107	704.45001	 23.70	
 10.210	161.034	  4.74370	  1.05959	  3.86449	  2.87216	  1.94554	 -0.09365	  4.96162	704.43597	 23.70	
 10.191	170.497	  4.72829	  1.00358	  3.92653	  2.61722	  2.18092	 -0.10073	  4.95564	704.48999	 23.70	
 11.899	171.783	  4.63040	  0.70030	  4.11706	  2.53952	  2.09715	 -0.14203	  4.95816	704.50897	 23.70	
 11.890	163.610	  4.63225	  0.74984	  4.05238	  2.78869	  1.85948	 -0.13414	  4.95351	704.52301	 23.70	
 11.889	155.445	  4.65076	  0.83103	  3.96473	  3.04226	  1.63859	 -0.12941	  4.96340	704.54602	 23.70	
 11.909	147.299	  4.63826	  0.92968	  3.81818	  3.26728	  1.41883	 -0.13379	  4.94174	704.49298	 23.70	
 11.902	139.148	  4.65863	  1.06979	  3.65884	  3.48795	  1.23921	 -0.13762	  4.95333	704.50897	 23.70	
 11.894	130.867	  4.67848	  1.23594	  3.47036	  3.68793	  1.08262	 -0.14274	  4.96374	704.33197	 23.70	
 11.897	122.732	  4.67918	  1.42096	  3.24696	  3.84401	  0.94770	 -0.14440	  4.95531	704.41602	 23.70	
 11.903	114.597	  4.68042	  1.62604	  3.00771	  3.97173	  0.84173	 -0.14723	  4.95129	704.38501	 23.70	
 11.893	106.346	  4.69832	  1.85941	  2.76022	  4.07586	  0.76638	 -0.14916	  4.96671	704.50098	 23.70	
 11.892	 98.155	  4.68780	  2.09597	  2.49567	  4.11977	  0.71628	 -0.15449	  4.95033	704.50598	 23.70	
 11.900	 90.000	  4.69631	  2.34776	  2.24076	  4.14064	  0.70086	 -0.15168	  4.95580	704.45502	 23.70	
 11.892	 81.845	  4.69459	  2.60257	  1.98514	  4.11531	  0.71365	 -0.14273	  4.95543	704.36200	 23.70	
 11.893	 73.654	  4.71210	  2.86620	  1.75043	  4.06591	  0.76323	 -0.13471	  4.97218	704.43402	 23.70	
 11.903	 65.403	  4.70148	  3.10997	  1.51683	  3.95965	  0.83543	 -0.12570	  4.96429	704.31201	 23.70	
 11.897	 57.268	  4.68661	  3.33236	  1.30643	  3.81174	  0.93864	 -0.13065	  4.94687	704.53101	 23.70	
 11.894	 49.133	  4.69238	  3.55040	  1.12419	  3.65088	  1.07172	 -0.13521	  4.95512	704.39099	 23.70	
 11.902	 40.852	  4.68583	  3.74067	  0.95958	  3.45464	  1.22986	 -0.14150	  4.95240	704.36798	 23.70	
 11.909	 32.701	  4.68284	  3.90237	  0.82765	  3.23848	  1.41190	 -0.14752	  4.95643	704.45801	 23.70	
 11.889	 24.555	  4.67595	  4.02663	  0.72717	  2.99663	  1.62172	 -0.15264	  4.95323	704.40802	 23.70	
 11.890	 16.390	  4.67828	  4.12479	  0.65311	  2.75321	  1.84773	 -0.15800	  4.96297	704.50098	 23.70	
 11.899	  8.217	  4.67450	  4.18275	  0.60931	  2.50176	  2.08931	 -0.16408	  4.96720	704.53198	 23.70	
 11.900	  0.000	  4.66167	  4.19158	  0.59277	  2.23889	  2.34068	 -0.16015	  4.96118	704.58502	 23.70	
 11.899	 -8.217	  4.64791	  4.16290	  0.60952	  1.98602	  2.59215	 -0.15756	  4.95279	704.41901	 23.70	
 11.890	-16.390	  4.65172	  4.10932	  0.65902	  1.75218	  2.85203	 -0.15542	  4.96340	704.55402	 23.70	
 11.889	-24.555	  4.63098	  3.99842	  0.73239	  1.52042	  3.09303	 -0.15602	  4.95023	704.46198	 23.70	
 11.909	-32.701	  4.62296	  3.86623	  0.83671	  1.31671	  3.32604	 -0.16212	  4.94687	704.50000	 23.70	
 11.902	-40.852	  4.63193	  3.71250	  0.97646	  1.14073	  3.55339	 -0.16608	  4.96813	704.54602	 23.70	
 11.894	-49.133	  4.61364	  3.50624	  1.13738	  0.97605	  3.73852	 -0.17077	  4.95372	704.45502	 23.70	
 11.897	-57.268	  4.61649	  3.29529	  1.32566	  0.84636	  3.91094	 -0.17367	  4.96629	704.47498	 23.70	
 11.903	-65.403	  4.59991	  3.05239	  1.53138	  0.74006	  4.03750	 -0.17509	  4.95833	704.33698	 23.70	
 11.893	-73.654	  4.58658	  2.79597	  1.75810	  0.66870	  4.12345	 -0.17638	  4.94816	704.44702	 23.70	
 11.892	-81.845	  4.58637	  2.54428	  2.00260	  0.62862	  4.18417	 -0.17952	  4.95133	704.48602	 23.70	
 11.900	-90.000	  4.58056	  2.28677	  2.25416	  0.61380	  4.20323	 -0.18038	  4.95157	704.39099	 23.70	
 11.892	-98.155	  4.58658	  2.04271	  2.51494	  0.63277	  4.19184	 -0.17739	  4.95957	704.52100	 23.70	
 11.893	-106.346	  4.57405	  1.79813	  2.76422	  0.67712	  4.12721	 -0.16476	  4.95274	704.56299	 23.70	
 11.903	-114.597	  4.57668	  1.57448	  3.01808	  0.75432	  4.03767	 -0.15373	  4.95643	704.57599	 23.70	
 11.897	-122.732	  4.59017	  1.37553	  3.26131	  0.86394	  3.91633	 -0.14519	  4.96792	704.52600	 23.70	
 11.894	-130.867	  4.58070	  1.19211	  3.46886	  0.99907	  3.74482	 -0.14319	  4.95522	704.46100	 23.70	
 11.902	-139.148	  4.58323	  1.03271	  3.66390	  1.16236	  3.54998	 -0.14232	  4.95299	704.44397	 23.70	
 11.909	-147.299	  4.59053	  0.90080	  3.83263	  1.34580	  3.34056	 -0.14633	  4.95962	704.56799	 23.70	
 11.889	-155.445	  4.58978	  0.80465	  3.95296	  1.55188	  3.10061	 -0.14302	  4.94664	704.47498	 23.70	
 11.890	-163.610	  4.61717	  0.73672	  4.06814	  1.78960	  2.86624	 -0.14371	  4.97081	704.40802	 23.70	
 11.899	-171.783	  4.59907	  0.69173	  4.10426	  2.02036	  2.59911	 -0.14648	  4.94638	704.39600	 23.70	
 11.900	180.000	  4.61300	  0.68131	  4.12721	  2.27464	  2.34851	 -0.14443	  4.94821	704.44397	 23.70	
 13.600	180.000	  4.48936	  0.38439	  4.29417	  2.18075	  2.25205	 -0.18500	  4.94895	704.57098	 23.70	
 13.608	-172.853	  4.48825	  0.39154	  4.28527	  1.93491	  2.50453	 -0.18725	  4.95647	704.45801	 23.70	
 13.611	-165.583	  4.47030	  0.42312	  4.22623	  1.68763	  2.75466	 -0.18669	  4.94691	704.42401	 23.70	
 13.601	-158.353	  4.47158	  0.48597	  4.14692	  1.45600	  3.01294	 -0.18655	  4.95378	704.39001	 23.70	
 13.609	-151.210	  4.48426	  0.57376	  4.04884	  1.24825	  3.26450	 -0.18774	  4.97658	704.50598	 23.70	
 13.611	-143.999	  4.46455	  0.68471	  3.88652	  1.05022	  3.48139	 -0.18123	  4.95976	704.55402	 23.70	
 13.601	-136.825	  4.45592	  0.81841	  3.70800	  0.87157	  3.68635	 -0.17684	  4.95528	704.53400	 23.70	
 13.596	-129.640	  4.46659	  0.98197	  3.51551	  0.71946	  3.88330	 -0.17498	  4.97092	704.50897	 23.70	
