FileType=PCF
NHL=14
Date=03/07/19	10:07:08
Facility=APL
Serial=16071-12
Customer=NASA
NP=6
Mach=0.380000
Calibration=1:1
CalPts=490
TstPts=95
PortNumbering=AP Standard
Units=Torr C m/s kg/m^3 deg mm 
Theta[deg]	Phi[deg]	P1[Torr]	P2[Torr]	P3[Torr]	P4[Torr]	P5[Torr]	P6[Torr]	Pt[Torr]	Ps[Abs,Torr]	Ts[C]	
  0.000	  0.000	 67.03190	 27.67085	 29.51084	 30.07772	 27.34459	  0.72708	 66.90582	712.35999	 28.70	
  1.691	128.401	 66.99792	 25.22196	 31.80708	 32.85199	 24.34249	  0.59985	 66.90407	712.40997	 28.80	
  1.692	 77.194	 66.99325	 28.36171	 28.55540	 33.61308	 23.63370	  0.77048	 66.88925	712.41998	 28.80	
  1.699	 26.182	 67.03960	 30.96687	 25.93742	 31.65796	 25.65424	  0.84471	 66.92852	712.28998	 28.90	
  1.699	-26.182	 67.04719	 31.03837	 25.92876	 28.40804	 28.90552	  0.79055	 66.91421	712.46997	 28.90	
  1.692	-77.194	 67.03344	 28.54344	 28.48768	 26.09732	 30.88263	  0.65543	 66.91839	712.38000	 29.00	
  1.691	-128.401	 67.08254	 25.38994	 31.79377	 26.79156	 30.16513	  0.51310	 66.96675	712.46002	 29.00	
  1.700	180.000	 67.10262	 23.89789	 33.31395	 29.94008	 27.27986	  0.46454	 66.99759	712.46002	 29.10	
  3.400	180.000	 66.89517	 20.12025	 36.57175	 29.57952	 26.97972	  0.11291	 66.97882	712.44000	 29.10	
  3.388	-152.325	 66.94996	 21.00084	 35.69685	 25.97135	 30.38476	  0.10448	 66.96761	712.51001	 29.20	
  3.397	-124.529	 66.98148	 23.32861	 33.35300	 23.48259	 33.09486	  0.18436	 66.97513	712.53003	 29.20	
  3.399	-96.763	 67.04086	 26.68655	 29.97262	 22.31379	 34.41241	  0.30285	 66.96979	712.53998	 29.20	
  3.394	-69.283	 67.08768	 30.23160	 26.33644	 22.78868	 34.05441	  0.49116	 67.01681	712.53998	 29.30	
  3.400	-41.398	 67.11916	 33.18442	 23.51701	 24.75591	 32.05751	  0.66978	 67.03627	712.46002	 29.30	
  3.401	-14.021	 67.10934	 34.73505	 22.00847	 28.06000	 28.90355	  0.79385	 67.03084	712.53998	 29.40	
  3.401	 14.021	 67.09621	 34.65324	 22.00334	 31.72389	 25.23026	  0.84512	 67.06458	712.50000	 29.40	
  3.400	 41.398	 67.07146	 32.95650	 23.55694	 34.87376	 22.07121	  0.79696	 67.08832	712.50000	 29.50	
  3.394	 69.283	 67.00437	 29.89663	 26.44135	 36.78395	 20.09139	  0.70165	 67.06477	712.41998	 29.50	
  3.399	 96.763	 66.95583	 26.28856	 30.11664	 37.11323	 19.66928	  0.55910	 67.06403	712.41998	 29.50	
  3.397	124.529	 66.92488	 23.00356	 33.54716	 35.78141	 20.94969	  0.34466	 67.04436	712.45001	 29.60	
  3.388	152.325	 66.93840	 20.84162	 35.73511	 33.07068	 23.62099	  0.19204	 67.05412	712.54999	 29.60	
  5.099	161.165	 66.49163	 16.64683	 39.31990	 32.69385	 22.98093	 -0.30927	 67.05367	712.46002	 29.60	
  5.109	142.013	 66.42828	 18.26763	 37.52147	 36.00933	 19.65537	 -0.20551	 67.02383	712.44000	 29.70	
  5.095	123.033	 66.43950	 20.72787	 34.92413	 38.46345	 17.35686	 -0.00631	 67.01867	712.46002	 29.70	
  5.105	104.191	 66.50470	 23.88675	 31.53072	 39.99748	 15.91376	  0.19050	 67.06631	711.81000	 29.70	
  5.093	 85.207	 66.53489	 27.53412	 27.70601	 40.37112	 15.63590	  0.31258	 67.02573	712.32001	 29.80	
  5.104	 66.290	 66.65335	 31.22199	 24.15958	 39.59449	 16.45204	  0.44180	 67.10133	712.40997	 29.80	
  5.094	 47.331	 66.71674	 34.36288	 21.22902	 37.62846	 18.39426	  0.55888	 67.06023	712.35999	 29.80	
  5.089	 28.397	 66.77604	 36.75118	 19.14969	 34.77097	 21.33470	  0.61866	 67.06908	712.42999	 29.90	
  5.096	  9.576	 66.88840	 38.16242	 18.10006	 31.29811	 24.87148	  0.65029	 67.09990	712.42999	 29.90	
  5.096	 -9.576	 66.93113	 38.25948	 18.09351	 27.44880	 28.58704	  0.58854	 67.10836	711.63000	 29.90	
  5.089	-28.397	 66.95526	 37.05513	 19.16077	 24.02094	 32.13167	  0.45756	 67.09925	711.62000	 30.00	
  5.094	-47.331	 66.95544	 34.82380	 21.23116	 21.23849	 35.05268	  0.27590	 67.08015	712.37000	 30.00	
  5.104	-66.290	 66.96836	 31.75341	 24.19987	 19.30583	 36.78640	  0.11353	 67.11329	711.72998	 30.00	
  5.093	-85.207	 66.95512	 28.18716	 27.73141	 18.49830	 37.66203	 -0.03978	 67.12538	712.40002	 30.00	
  5.105	-104.191	 66.85454	 24.44259	 31.53694	 18.67554	 37.30486	 -0.20182	 67.09016	712.38000	 30.10	
  5.095	-123.033	 66.80152	 21.21798	 34.83853	 20.03829	 35.65444	 -0.28160	 67.10295	712.42999	 30.10	
  5.109	-142.013	 66.75880	 18.65248	 37.60029	 22.37808	 33.52377	 -0.35562	 67.14426	711.72998	 30.20	
  5.099	-161.165	 66.67325	 16.83270	 39.41023	 25.42138	 30.19234	 -0.37897	 67.13302	712.35999	 30.20	
  5.100	180.000	 66.60410	 16.10769	 40.01596	 29.08704	 26.56876	 -0.41651	 67.12989	712.52002	 30.20	
  6.800	180.000	 65.90510	 12.11672	 43.24343	 28.13826	 25.92077	 -0.98182	 67.12673	712.10999	 30.20	
  6.796	-166.229	 65.98784	 12.60715	 42.79430	 24.87263	 29.48957	 -0.94234	 67.13616	712.47998	 30.30	
  6.808	-152.311	 66.06870	 13.88054	 41.50514	 21.67554	 32.96810	 -0.89840	 67.13158	712.62000	 30.30	
  6.795	-138.383	 66.13533	 15.87678	 39.32323	 18.91667	 35.55222	 -0.88733	 67.10504	712.58002	 30.30	
  6.792	-124.591	 66.23852	 18.54605	 36.63065	 16.78264	 38.06424	 -0.81898	 67.09949	712.41998	 30.30	
  6.787	-110.754	 66.34997	 21.58113	 33.48456	 15.35480	 39.88538	 -0.74967	 67.12711	712.47998	 30.40	
  6.800	-96.985	 66.41525	 24.94318	 29.88714	 14.60502	 40.88055	 -0.69706	 67.11989	711.75000	 30.40	
  6.800	-83.015	 66.46184	 28.54472	 26.22844	 14.59514	 40.94199	 -0.54807	 67.10409	711.81000	 30.40	
  6.787	-69.246	 66.47260	 32.01324	 22.87236	 15.37607	 40.05143	 -0.39812	 67.09976	711.81000	 30.50	
  6.792	-55.409	 66.47441	 35.20712	 19.80787	 16.89231	 38.29882	 -0.29417	 67.08868	711.73999	 30.50	
  6.795	-41.617	 66.49838	 37.95954	 17.32479	 19.10076	 35.86710	 -0.13196	 67.10472	711.67999	 30.50	
  6.808	-27.689	 66.47727	 40.10424	 15.47854	 21.93734	 33.17749	  0.02384	 67.08745	711.76001	 30.50	
  6.796	-13.771	 66.45361	 41.36004	 14.39418	 25.20677	 29.66697	  0.12087	 67.10154	711.76001	 30.60	
  6.800	  0.000	 66.39503	 41.72135	 14.00570	 28.88099	 26.01237	  0.24681	 67.09895	711.75000	 30.60	
  6.796	 13.771	 66.34060	 41.16216	 14.37735	 32.54118	 22.37858	  0.28582	 67.11565	711.78998	 30.60	
  6.808	 27.689	 66.23545	 39.71801	 15.42097	 35.92487	 18.93378	  0.20743	 67.10840	711.87000	 30.60	
  6.795	 41.617	 66.18332	 37.41631	 17.34209	 38.73458	 16.31026	  0.15437	 67.13017	711.82001	 30.70	
  6.792	 55.409	 66.08825	 34.57697	 19.82404	 41.10136	 14.14292	  0.11948	 67.11868	711.90997	 30.70	
  6.787	 69.246	 65.99836	 31.33281	 22.81290	 42.57903	 12.58062	  0.01281	 67.10671	711.81000	 30.70	
  6.800	 83.015	 65.92125	 27.74978	 26.08535	 43.49099	 11.77681	 -0.11252	 67.10641	711.84003	 30.70	
  6.800	 96.985	 65.84004	 24.11927	 29.83968	 43.36396	 11.78598	 -0.22889	 67.07844	711.87000	 30.80	
  6.787	110.754	 65.77618	 20.89815	 33.45853	 42.41642	 12.60355	 -0.35352	 67.05744	711.89001	 30.80	
  6.792	124.591	 65.75573	 17.85715	 36.59433	 40.72919	 14.10568	 -0.55070	 67.05338	711.90002	 30.80	
  6.795	138.383	 65.76676	 15.29214	 39.25653	 38.37252	 16.29260	 -0.72776	 67.08385	711.82001	 30.80	
  6.808	152.311	 65.75248	 13.47334	 41.47733	 35.41291	 19.01319	 -0.87672	 67.05732	712.44000	 30.80	
  6.796	166.229	 65.82471	 12.39461	 42.70910	 31.94828	 22.34646	 -0.98408	 67.08467	712.60999	 30.80	
  8.491	168.704	 64.82714	  8.34823	 45.96029	 31.14940	 21.33321	 -1.50141	 67.03580	712.69000	 30.80	
  8.502	157.493	 64.77079	  9.19189	 44.81223	 34.75727	 17.85842	 -1.49643	 67.04136	712.66998	 30.90	
  8.494	146.194	 64.75388	 10.69157	 42.84283	 37.99145	 15.05624	 -1.42031	 67.02597	712.50000	 30.90	
  8.495	135.039	 64.76083	 12.68097	 40.49799	 40.76427	 12.54539	 -1.30493	 67.03333	712.21997	 30.90	
  8.487	123.723	 64.75760	 15.18804	 37.59263	 43.03890	 10.47982	 -1.16239	 67.03019	712.57001	 30.90	
  8.492	112.575	 64.76637	 18.19019	 34.48996	 44.89660	  8.91610	 -0.96846	 67.02363	711.83002	 30.90	
  8.510	101.220	 64.78214	 21.57239	 30.78081	 46.18853	  7.92800	 -0.84365	 66.98506	711.83002	 31.00	
  8.500	 90.000	 64.85580	 24.96140	 26.99439	 46.64092	  7.62968	 -0.74429	 66.99336	712.51001	 31.00	
  8.510	 78.780	 64.92297	 28.62060	 23.51126	 46.36182	  7.89397	 -0.65683	 67.00531	711.85999	 31.00	
  8.492	 67.425	 64.98918	 32.27423	 20.19337	 45.20109	  8.89764	 -0.52841	 66.98630	711.88000	 31.00	
  8.487	 56.277	 65.14375	 35.53082	 17.29227	 43.41002	 10.45183	 -0.50457	 67.03400	711.96997	 31.00	
  8.495	 44.961	 65.21664	 38.54577	 14.73188	 41.15655	 12.51499	 -0.52998	 67.01815	711.88000	 31.10	
  8.494	 33.806	 65.30650	 41.13936	 12.69583	 38.42892	 15.08284	 -0.35222	 67.02576	711.82001	 31.10	
  8.502	 22.507	 65.37193	 43.13840	 11.12986	 35.27497	 18.09483	 -0.24615	 67.00034	711.89001	 31.10	
  8.491	 11.296	 65.48076	 44.37923	 10.24425	 31.71976	 21.47230	 -0.20336	 67.01859	711.91998	 31.10	
  8.500	  0.000	 65.53614	 44.88572	  9.90459	 27.82877	 25.15428	 -0.29749	 67.00596	711.82001	 31.10	
  8.491	-11.296	 65.61147	 44.59660	 10.24436	 24.32940	 28.90960	 -0.40779	 67.01822	711.90002	 31.20	
  8.502	-22.507	 65.66087	 43.55917	 11.16332	 20.94723	 32.57860	 -0.50713	 67.03466	711.90002	 31.20	
  8.494	-33.806	 65.73892	 41.72674	 12.76267	 17.99201	 35.62258	 -0.62015	 67.05436	711.96002	 31.20	
  8.495	-44.961	 65.68159	 39.26661	 14.76672	 15.43254	 38.33361	 -0.80532	 66.98196	711.90002	 31.20	
  8.487	-56.277	 65.72681	 36.36504	 17.31087	 13.33105	 40.87520	 -0.94352	 67.04143	711.88000	 31.20	
  8.492	-67.425	 65.67904	 33.20127	 20.22355	 11.79649	 42.70852	 -1.02243	 67.01714	711.84998	 31.30	
  8.510	-78.780	 65.63859	 29.60032	 23.63129	 10.78080	 43.90905	 -1.16428	 67.01955	711.94000	 31.30	
  8.500	-90.000	 65.60384	 25.94983	 27.22404	 10.49658	 44.24943	 -1.30416	 67.05103	711.92999	 31.30	
  8.510	-101.220	 65.53433	 22.42706	 30.92213	 10.76539	 43.85777	 -1.30771	 67.04473	711.81000	 31.30	
  8.492	-112.575	 65.40899	 19.05844	 34.58479	 11.63343	 42.56070	 -1.40456	 67.01156	712.03003	 31.30	
  8.487	-123.723	 65.30750	 15.89405	 37.74514	 13.09828	 40.64359	 -1.30123	 66.99323	711.96002	 31.30	
  8.495	-135.039	 65.20742	 13.24400	 40.63095	 15.16243	 38.08315	 -1.35747	 67.00916	711.92999	 31.40	
  8.494	-146.194	 65.09319	 11.15934	 42.91677	 17.59970	 35.34251	 -1.28813	 66.99677	711.97998	 31.40	
  8.502	-157.493	 64.98465	  9.52073	 44.83593	 20.54201	 32.29760	 -1.34939	 66.99472	711.92999	 31.40	
  8.491	-168.704	 64.91913	  8.51364	 45.95284	 23.82096	 28.72141	 -1.59062	 67.01644	711.90002	 31.40	
  8.500	180.000	 64.82484	  8.12023	 46.34904	 27.25296	 25.01635	 -1.65843	 66.99580	711.90997	 31.40	
 10.200	180.000	 63.59812	  3.93140	 49.27908	 26.24486	 23.95563	 -2.31924	 66.96519	711.92999	 31.50	
 10.191	-170.497	 63.68616	  4.31608	 48.92236	 22.78005	 27.76343	 -2.20283	 66.96808	712.01001	 31.50	
 10.210	-161.034	 63.77229	  5.20929	 48.00638	 19.43139	 31.44094	 -2.05041	 66.98930	712.23999	 31.50	
 10.194	-151.526	 63.85474	  6.65474	 46.39294	 16.41629	 34.73423	 -1.98841	 66.92953	711.92999	 31.50	
 10.190	-142.105	 64.02407	  8.45646	 44.25560	 13.77433	 37.59196	 -2.01472	 66.99909	711.92999	 31.50	
 10.215	-132.646	 64.10280	 10.64808	 41.70600	 11.36353	 40.68021	 -1.96619	 66.97797	711.97998	 31.50	
 10.203	-123.092	 64.22704	 13.34204	 38.64518	  9.39737	 43.21399	 -1.88475	 66.98411	711.87000	 31.60	
 10.192	-113.678	 64.31810	 16.36488	 35.45720	  7.95072	 45.08518	 -1.88378	 66.96888	712.69000	 31.60	
 10.208	-104.249	 64.41033	 19.84153	 31.88552	  7.00924	 46.40580	 -1.94244	 66.96818	712.09003	 31.60	
 10.210	-94.801	 64.46756	 23.25897	 28.09373	  6.55563	 47.10362	 -1.99457	 66.92794	711.87000	 31.60	
 10.210	-85.199	 64.57643	 26.96841	 24.35571	  6.63711	 47.14863	 -1.92591	 66.96729	711.91998	 31.60	
 10.208	-75.751	 64.58117	 30.64498	 20.88129	  7.09487	 46.52325	 -1.85538	 66.93631	711.85999	 31.60	
 10.192	-66.322	 64.63461	 34.17448	 17.62138	  8.17188	 45.24127	 -1.73084	 66.93938	711.96002	 31.60	
 10.203	-56.908	 64.67277	 37.38675	 14.67914	  9.69461	 43.36481	 -1.66635	 66.95601	711.97998	 31.70	
 10.215	-47.354	 64.66816	 40.41818	 12.10669	 11.69369	 40.91365	 -1.52744	 66.93389	712.03003	 31.70	
 10.190	-37.895	 64.67497	 43.01172	 10.02837	 14.14173	 37.94097	 -1.34929	 66.92309	712.04999	 31.70	
 10.194	-28.474	 64.62827	 45.10842	  8.32473	 16.85976	 34.96619	 -1.24102	 66.91821	711.97998	 31.70	
 10.210	-18.966	 64.62208	 46.71114	  6.91604	 20.07335	 31.63185	 -1.11545	 66.94305	711.96997	 31.70	
 10.191	 -9.503	 64.56995	 47.57407	  6.19605	 23.49576	 27.95411	 -0.98124	 66.92844	711.98999	 31.80	
 10.200	  0.000	 64.48746	 47.78723	  5.96578	 26.96140	 24.18126	 -0.89111	 66.92664	711.94000	 31.80	
 10.191	  9.503	 64.39635	 47.34176	  6.17015	 30.87641	 20.41296	 -0.96023	 66.93099	711.96997	 31.80	
 10.210	 18.966	 64.27250	 46.32042	  6.93337	 34.49804	 17.05937	 -0.80668	 66.90859	711.96002	 31.90	
 10.194	 28.474	 64.19682	 44.56443	  8.32080	 37.83855	 13.98475	 -1.35249	 66.91360	712.03003	 31.90	
 10.190	 37.895	 64.08382	 42.24479	 10.05480	 40.82552	 11.21552	 -0.94702	 66.90273	711.98999	 31.90	
 10.215	 47.354	 63.93419	 39.43933	 12.14933	 43.44468	  8.76005	 -1.28169	 66.88417	711.97998	 31.90	
 10.203	 56.908	 63.86707	 36.27584	 14.76073	 45.87964	  6.79491	 -1.39774	 66.89554	711.96002	 31.90	
 10.192	 66.322	 63.76033	 33.00421	 17.64139	 47.66587	  5.29810	 -1.16736	 66.89560	712.03003	 31.90	
 10.208	 75.751	 63.65220	 29.39966	 20.80773	 48.88820	  4.22446	 -1.38135	 66.86900	711.85999	 32.00	
 10.210	 85.199	 63.61322	 25.71303	 24.23326	 49.48950	  3.78085	 -1.33914	 66.90155	712.09998	 32.00	
 10.210	 94.801	 63.52288	 22.14793	 27.83913	 49.41622	  3.68251	 -1.43055	 66.91919	712.02002	 32.00	
 10.208	104.249	 63.42616	 18.68770	 31.64818	 48.66236	  4.18368	 -1.50797	 66.86816	711.91998	 32.00	
 10.192	113.678	 63.43473	 15.34367	 35.23700	 47.38801	  5.26543	 -1.62259	 66.91830	711.98999	 32.00	
 10.203	123.092	 63.37039	 12.50879	 38.38751	 45.38557	  6.74970	 -1.96521	 66.85734	712.02002	 32.00	
 10.215	132.646	 63.38631	 10.02229	 41.45790	 43.01250	  8.74059	 -2.00485	 66.89230	711.97998	 32.00	
 10.190	142.105	 63.38076	  7.96395	 44.02281	 40.23427	 11.18063	 -1.92576	 66.87298	711.96997	 32.10	
 10.194	151.526	 63.36784	  6.12959	 46.26060	 37.18823	 13.85271	 -1.97703	 66.86488	711.88000	 32.10	
 10.210	161.034	 63.41557	  4.88955	 47.91873	 33.78722	 16.88864	 -2.10050	 66.88631	711.97998	 32.10	
 10.191	170.497	 63.47982	  4.25041	 48.85722	 30.00876	 20.29496	 -2.22529	 66.86292	711.92999	 32.10	
 11.899	171.783	 62.06627	  0.16639	 51.59022	 28.58628	 18.92273	 -2.93891	 66.87788	711.95001	 32.10	
 11.890	163.610	 62.00582	  0.76350	 50.71513	 32.58335	 15.59645	 -2.86971	 66.85544	712.00000	 32.10	
 11.889	155.445	 61.95613	  1.61848	 49.36685	 36.09518	 12.53249	 -2.72968	 66.87814	712.03003	 32.20	
 11.909	147.299	 61.89251	  2.96630	 47.45164	 39.37896	  9.80103	 -2.64772	 66.87053	712.00000	 32.20	
 11.902	139.148	 61.89217	  4.80879	 44.98378	 42.41415	  7.22591	 -2.67301	 66.85301	711.96002	 32.20	
 11.894	130.867	 61.89151	  7.33113	 42.23122	 45.01012	  4.94008	 -2.73803	 66.86152	711.97998	 32.20	
 11.897	122.732	 61.93120	  9.76588	 39.12815	 47.53766	  3.15268	 -2.60714	 66.86251	711.97998	 32.20	
 11.903	114.597	 61.91922	 12.50827	 35.89766	 49.47221	  1.65653	 -2.44500	 66.81858	712.01001	 32.20	
 11.893	106.346	 62.01947	 15.69153	 32.35801	 50.93157	  0.50489	 -2.33013	 66.87090	711.91998	 32.20	
 11.892	 98.155	 62.05412	 19.21827	 28.49407	 51.76363	 -0.07165	 -2.33028	 66.84834	712.03998	 32.30	
 11.900	 90.000	 62.10730	 22.73974	 24.91725	 52.10951	 -0.25829	 -2.33921	 66.85485	712.09998	 32.30	
 11.892	 81.845	 62.19588	 26.30633	 21.47499	 51.89043	  0.01102	 -2.45866	 66.83976	712.03998	 32.30	
 11.893	 73.654	 62.26460	 30.05200	 18.11723	 51.11334	  0.65652	 -2.37449	 66.84735	711.90002	 32.30	
 11.903	 65.403	 62.37423	 33.68144	 14.95937	 49.83043	  1.71805	 -2.19667	 66.87315	712.00000	 32.30	
 11.897	 57.268	 62.45957	 36.94540	 12.13270	 48.04204	  3.21948	 -2.04379	 66.85651	712.01001	 32.30	
 11.894	 49.133	 62.50759	 40.13612	  9.46961	 45.75066	  4.96442	 -2.02924	 66.82542	711.92999	 32.40	
 11.902	 40.852	 62.64185	 43.12320	  7.14282	 42.98547	  7.26720	 -2.04610	 66.83612	711.96002	 32.40	
 11.909	 32.701	 62.78841	 45.66398	  5.36359	 40.15613	  9.87728	 -2.03985	 66.86015	711.90997	 32.40	
 11.889	 24.555	 62.88553	 47.62490	  3.99180	 36.93831	 12.84685	 -1.95419	 66.82187	711.87000	 32.40	
 11.890	 16.390	 63.00582	 49.15176	  2.95076	 33.48810	 16.02111	 -1.79241	 66.86575	711.94000	 32.40	
 11.899	  8.217	 63.08042	 50.09331	  2.34472	 29.67365	 19.45461	 -1.84322	 66.84854	711.96997	 32.40	
 11.900	  0.000	 63.16471	 50.48887	  2.15952	 25.91688	 23.06417	 -1.67776	 66.83321	711.98999	 32.50	
 11.899	 -8.217	 63.24800	 50.35324	  2.26463	 22.42054	 26.83509	 -1.63360	 66.86383	711.94000	 32.50	
 11.890	-16.390	 63.31200	 49.57407	  2.90141	 18.97464	 30.63566	 -1.90389	 66.86208	711.96997	 32.50	
 11.889	-24.555	 63.36260	 48.28850	  4.02152	 15.81921	 34.18555	 -2.01101	 66.87711	711.98999	 32.50	
 11.909	-32.701	 63.35016	 46.46606	  5.48854	 12.93041	 37.08071	 -2.12982	 66.84604	712.09003	 32.50	
 11.902	-40.852	 63.38366	 44.14925	  7.28149	 10.40374	 40.33652	 -2.06806	 66.86491	711.98999	 32.50	
 11.894	-49.133	 63.35406	 41.33881	  9.48836	  8.20337	 43.17186	 -2.27374	 66.83080	711.89001	 32.50	
 11.897	-57.268	 63.38795	 38.25158	 12.06729	  6.26438	 45.54831	 -2.50706	 66.85107	712.06000	 32.50	
 11.903	-65.403	 63.38241	 35.04289	 14.96253	  4.77001	 47.47962	 -2.44912	 66.87774	712.04999	 32.60	
 11.893	-73.654	 63.32060	 31.56469	 18.18697	  3.63127	 49.01012	 -2.40211	 66.85703	712.09998	 32.60	
 11.892	-81.845	 63.28841	 27.83687	 21.59462	  2.90887	 49.84715	 -2.42904	 66.87089	712.10999	 32.60	
 11.900	-90.000	 63.18605	 24.11142	 25.04572	  2.56205	 50.07397	 -2.52687	 66.83425	712.02002	 32.60	
 11.892	-98.155	 63.12598	 20.70795	 28.78861	  2.77014	 49.87234	 -2.53328	 66.85471	712.09003	 32.60	
 11.893	-106.346	 63.02135	 17.05531	 32.57604	  3.34519	 48.94138	 -2.47452	 66.84974	712.00000	 32.60	
 11.903	-114.597	 62.90409	 13.75570	 36.13017	  4.28791	 47.31884	 -2.42135	 66.81786	711.98999	 32.60	
 11.897	-122.732	 62.78291	 10.78244	 39.30794	  5.65620	 45.34183	 -2.41921	 66.80988	711.98999	 32.60	
 11.894	-130.867	 62.63885	  8.16784	 42.36097	  7.43964	 42.95868	 -2.49639	 66.80519	712.03003	 32.70	
 11.902	-139.148	 62.50521	  5.67707	 45.06705	  9.72159	 40.02749	 -2.59721	 66.79258	711.94000	 32.70	
 11.909	-147.299	 62.42684	  3.61209	 47.54706	 12.36816	 36.73721	 -2.57051	 66.79948	711.90997	 32.70	
 11.889	-155.445	 62.33954	  2.18828	 49.38674	 15.25275	 33.74672	 -2.54893	 66.81938	711.96002	 32.70	
 11.890	-163.610	 62.23284	  1.13511	 50.73849	 18.30351	 30.24284	 -2.59711	 66.81371	711.96002	 32.70	
 11.899	-171.783	 62.13570	  0.37706	 51.56085	 21.55917	 26.55547	 -2.73120	 66.82082	711.90997	 32.70	
 11.900	180.000	 62.05575	  0.01506	 51.83025	 25.03666	 22.73499	 -2.89439	 66.81407	711.92999	 32.70	
 13.600	180.000	 60.37641	 -3.77351	 54.26048	 23.71549	 21.33868	 -3.36673	 66.81279	712.04999	 32.70	
 13.608	-172.853	 60.41541	 -3.53663	 54.05502	 20.35306	 25.08982	 -3.18509	 66.78748	712.07001	 32.70	
 13.611	-165.583	 60.51275	 -2.93632	 53.36924	 16.99586	 28.95875	 -3.01760	 66.81435	711.92999	 32.80	
 13.601	-158.353	 60.61774	 -1.93715	 52.14920	 13.87017	 32.53982	 -2.93029	 66.78361	712.06000	 32.80	
 13.609	-151.210	 60.76217	 -0.70902	 50.53001	 10.95280	 35.84983	 -2.92367	 66.80677	712.04999	 32.80	
 13.611	-143.999	 60.87324	  0.97551	 48.41442	  8.15589	 39.12216	 -2.92022	 66.84016	712.77002	 32.80	
 13.601	-136.825	 60.95427	  2.99768	 45.74174	  5.68962	 42.27822	 -2.89054	 66.80729	712.34003	 32.80	
 13.596	-129.640	 61.06056	  5.41562	 43.01947	  3.68508	 44.99231	 -2.79519	 66.79293	712.01001	 32.80	
