FileType=PCF
NHL=14
Date=03/06/19	15:34:30
Facility=APL
Serial=16071-12
Customer=NASA
NP=6
Mach=0.230000
Calibration=1:1
CalPts=490
TstPts=95
PortNumbering=AP Standard
Units=Torr C m/s kg/m^3 deg mm 
Theta[deg]	Phi[deg]	P1[Torr]	P2[Torr]	P3[Torr]	P4[Torr]	P5[Torr]	P6[Torr]	Pt[Torr]	Ps[Abs,Torr]	Ts[C]	
  0.000	  0.000	 25.47910	 10.38298	 10.91259	 11.05797	 10.19147	  0.45801	 25.43823	709.63000	 26.50	
  1.691	128.401	 25.47028	  9.47399	 11.72889	 12.09536	  9.08819	  0.41146	 25.44486	709.60999	 26.50	
  1.692	 77.194	 25.47689	 10.61512	 10.57574	 12.39266	  8.81684	  0.47112	 25.43162	709.69000	 26.50	
  1.699	 26.182	 25.48293	 11.58454	  9.66903	 11.64781	  9.54864	  0.51260	 25.42988	709.66998	 26.60	
  1.699	-26.182	 25.47672	 11.61414	  9.66327	 10.44447	 10.75630	  0.48073	 25.43185	709.62000	 26.60	
  1.692	-77.194	 25.48198	 10.68747	 10.57555	  9.73018	 11.50649	  0.42956	 25.42706	709.57001	 26.60	
  1.691	-128.401	 25.49358	  9.53361	 11.75405	  9.97509	 11.22691	  0.37581	 25.45233	709.50000	 26.70	
  1.700	180.000	 25.48243	  8.97370	 12.28795	 11.01903	 10.13845	  0.37172	 25.44890	709.57001	 26.70	
  3.400	180.000	 25.41302	  7.54762	 13.62590	 10.88340	  9.99493	  0.23260	 25.44279	709.46997	 26.70	
  3.388	-152.325	 25.43427	  7.88967	 13.28386	  9.70694	 11.31522	  0.24876	 25.46358	709.59998	 26.80	
  3.397	-124.529	 25.43170	  8.75966	 12.35091	  8.75496	 12.36673	  0.25929	 25.43869	709.64001	 26.80	
  3.399	-96.763	 25.47390	 10.00397	 11.11550	  8.36859	 12.85850	  0.30969	 25.45411	709.58002	 26.80	
  3.394	-69.283	 25.48108	 11.31380	  9.81419	  8.53599	 12.73449	  0.36981	 25.44695	709.58002	 26.80	
  3.400	-41.398	 25.47996	 12.43696	  8.79401	  9.22637	 11.95399	  0.43320	 25.45204	709.63000	 26.90	
  3.401	-14.021	 25.49255	 13.06930	  8.24612	 10.32204	 10.74250	  0.48554	 25.46067	709.59998	 26.90	
  3.401	 14.021	 25.48801	 13.04423	  8.24318	 11.62856	  9.40840	  0.51291	 25.46783	709.69000	 26.90	
  3.400	 41.398	 25.46899	 12.34951	  8.82662	 12.80870	  8.21442	  0.50611	 25.46422	709.59998	 26.90	
  3.394	 69.283	 25.43757	 11.16842	  9.84098	 13.58839	  7.44771	  0.46341	 25.45307	709.62000	 27.00	
  3.399	 96.763	 25.43644	  9.88125	 11.09123	 13.75059	  7.27480	  0.40717	 25.46548	709.65002	 27.00	
  3.397	124.529	 25.43267	  8.67501	 12.33089	 13.22996	  7.70898	  0.33496	 25.46976	709.65002	 27.00	
  3.388	152.325	 25.43305	  7.83494	 13.28649	 12.14699	  8.73094	  0.28352	 25.47063	709.66998	 27.00	
  5.099	161.165	 25.27338	  6.29251	 14.69534	 12.02014	  8.41411	  0.13381	 25.47360	709.60999	 27.10	
  5.109	142.013	 25.25723	  6.87020	 13.97487	 13.30521	  7.19850	  0.18348	 25.46813	709.63000	 27.10	
  5.095	123.033	 25.27213	  7.81661	 12.89293	 14.30012	  6.38010	  0.23280	 25.47120	709.53998	 27.10	
  5.105	104.191	 25.27596	  9.02098	 11.57680	 14.91586	  5.91241	  0.27781	 25.46941	709.63000	 27.10	
  5.093	 85.207	 25.29935	 10.35051	 10.27145	 15.04065	  5.82680	  0.30089	 25.47777	709.62000	 27.20	
  5.104	 66.290	 25.31662	 11.69794	  9.04316	 14.71361	  6.13946	  0.38333	 25.47140	709.50000	 27.20	
  5.094	 47.331	 25.35905	 12.93352	  8.00383	 13.93005	  6.84280	  0.38596	 25.47503	709.60999	 27.20	
  5.089	 28.397	 25.38304	 13.88336	  7.21482	 12.82810	  7.89049	  0.43437	 25.48899	709.57001	 27.20	
  5.096	  9.576	 25.41798	 14.40010	  6.82644	 11.52962	  9.22606	  0.45544	 25.49690	709.56000	 27.30	
  5.096	 -9.576	 25.42362	 14.42941	  6.83080	 10.17391	 10.60823	  0.42261	 25.48439	709.45001	 27.30	
  5.089	-28.397	 25.43865	 13.98224	  7.23927	  9.01696	 11.92592	  0.38344	 25.48527	709.48999	 27.30	
  5.094	-47.331	 25.43107	 13.10494	  7.98156	  8.03312	 13.07301	  0.31643	 25.48194	709.59998	 27.30	
  5.104	-66.290	 25.42250	 11.91255	  9.01059	  7.33200	 13.85746	  0.25884	 25.47660	709.57001	 27.30	
  5.093	-85.207	 25.42615	 10.56839	 10.26076	  7.05666	 14.14609	  0.23107	 25.49077	709.53998	 27.40	
  5.105	-104.191	 25.40225	  9.19120	 11.65581	  7.10811	 14.03272	  0.15597	 25.48669	709.56000	 27.40	
  5.095	-123.033	 25.37430	  7.97100	 12.93231	  7.54480	 13.45568	  0.12269	 25.48469	709.62000	 27.40	
  5.109	-142.013	 25.35518	  7.00464	 14.01206	  8.36991	 12.46161	  0.17200	 25.48517	709.62000	 27.40	
  5.099	-161.165	 25.32598	  6.36111	 14.71993	  9.46796	 11.17442	  0.17142	 25.48683	709.62000	 27.50	
  5.100	180.000	 25.30993	  6.13539	 14.95505	 10.69599	  9.79137	  0.09318	 25.48116	709.58002	 27.50	
  6.800	180.000	 25.05245	  4.65259	 16.22046	 10.47241	  9.51721	 -0.06069	 25.48763	709.64001	 27.50	
  6.796	-166.229	 25.07339	  4.83109	 16.04881	  9.24296	 10.89125	 -0.05514	 25.48984	709.53003	 27.50	
  6.808	-152.311	 25.10146	  5.28208	 15.54019	  8.07880	 12.23413	 -0.04514	 25.47861	709.65997	 27.50	
  6.795	-138.383	 25.13073	  5.97192	 14.70674	  7.08354	 13.40757	 -0.04049	 25.49117	709.67999	 27.60	
  6.792	-124.591	 25.16320	  6.89447	 13.63835	  6.34322	 14.32784	 -0.01562	 25.48569	709.60999	 27.60	
  6.787	-110.754	 25.20168	  8.03375	 12.38793	  5.85368	 14.99818	 -0.00881	 25.48521	709.63000	 27.60	
  6.800	-96.985	 25.22294	  9.33201	 11.04384	  5.60238	 15.35937	 -0.00304	 25.49231	709.60999	 27.60	
  6.800	-83.015	 25.24573	 10.68312	  9.74098	  5.62505	 15.38054	  0.02675	 25.49373	709.63000	 27.60	
  6.787	-69.246	 25.26809	 12.02653	  8.50856	  5.93699	 15.02432	  0.06039	 25.50581	709.63000	 27.70	
  6.792	-55.409	 25.25497	 13.24845	  7.43411	  6.47453	 14.39810	  0.10195	 25.49294	709.63000	 27.70	
  6.795	-41.617	 25.26912	 14.29170	  6.56183	  7.24083	 13.50698	  0.12383	 25.49166	709.63000	 27.70	
  6.808	-27.689	 25.26872	 15.12999	  5.89674	  8.22554	 12.33804	  0.22558	 25.49302	709.73999	 27.70	
  6.796	-13.771	 25.24349	 15.61354	  5.48901	  9.39626	 11.00991	  0.26962	 25.49593	709.70001	 27.70	
  6.800	  0.000	 25.22828	 15.73752	  5.34929	 10.63626	  9.66792	  0.22783	 25.48972	709.64001	 27.80	
  6.796	 13.771	 25.19979	 15.51740	  5.47451	 11.97485	  8.28367	  0.25198	 25.48326	709.70001	 27.80	
  6.808	 27.689	 25.17139	 15.00017	  5.88984	 13.23460	  7.04006	  0.29987	 25.49152	709.56000	 27.80	
  6.795	 41.617	 25.14976	 14.11768	  6.55660	 14.38424	  6.00735	  0.23717	 25.47918	709.65997	 27.80	
  6.792	 55.409	 25.11411	 12.99400	  7.44636	 15.30232	  5.32466	  0.22223	 25.47692	709.65997	 27.80	
  6.787	 69.246	 25.10156	 11.71913	  8.52932	 15.97921	  4.77672	  0.20790	 25.49647	709.66998	 27.90	
  6.800	 83.015	 25.06658	 10.38503	  9.71282	 16.30963	  4.42760	  0.14381	 25.48141	709.65002	 27.90	
  6.800	 96.985	 25.05338	  9.03187	 11.00899	 16.28982	  4.32945	  0.12794	 25.49388	709.59998	 27.90	
  6.787	110.754	 25.04478	  7.80325	 12.34224	 15.92062	  4.60904	  0.08944	 25.49516	709.71002	 27.90	
  6.792	124.591	 25.03203	  6.70177	 13.59884	 15.23547	  5.09502	  0.04654	 25.49394	709.65997	 27.90	
  6.795	138.383	 25.03162	  5.82175	 14.67768	 14.27421	  5.90907	  0.02024	 25.49848	709.63000	 28.00	
  6.808	152.311	 25.02936	  5.17017	 15.52082	 13.09996	  6.93028	 -0.01684	 25.49299	709.65002	 28.00	
  6.796	166.229	 25.05862	  4.80227	 16.04683	 11.79060	  8.15669	 -0.05435	 25.51140	709.60999	 28.00	
  8.491	168.704	 24.68673	  3.27771	 17.28036	 11.50119	  7.79908	 -0.34200	 25.49201	709.69000	 28.00	
  8.502	157.493	 24.67082	  3.55874	 16.84673	 12.84784	  6.53432	 -0.27959	 25.49088	709.72998	 28.00	
  8.494	146.194	 24.65590	  4.05675	 16.12759	 14.12119	  5.39495	 -0.23798	 25.50151	709.70001	 28.10	
  8.495	135.039	 24.67546	  4.78053	 15.18945	 15.24402	  4.50963	 -0.22438	 25.51170	709.78998	 28.10	
  8.487	123.723	 24.67537	  5.70676	 14.03542	 16.21232	  3.80975	 -0.21791	 25.49735	709.73999	 28.10	
  8.492	112.575	 24.66195	  6.76912	 12.77324	 16.92073	  3.28699	 -0.15478	 25.48703	709.64001	 28.10	
  8.510	101.220	 24.67150	  8.00172	 11.39033	 17.38803	  2.96137	 -0.11424	 25.48429	709.71997	 28.10	
  8.500	 90.000	 24.70674	  9.33946	 10.04991	 17.55735	  2.86092	 -0.09870	 25.49420	709.62000	 28.10	
  8.510	 78.780	 24.74552	 10.72343	  8.79400	 17.44709	  2.97661	 -0.08836	 25.50964	709.64001	 28.10	
  8.492	 67.425	 24.75680	 12.09851	  7.57674	 17.01406	  3.32998	 -0.04122	 25.49242	709.65002	 28.10	
  8.487	 56.277	 24.78458	 13.39608	  6.47075	 16.32756	  3.91943	  0.01103	 25.49066	709.59998	 28.20	
  8.495	 44.961	 24.83042	 14.58927	  5.52274	 15.40467	  4.68929	  0.02464	 25.49678	709.72998	 28.20	
  8.494	 33.806	 24.85512	 15.57614	  4.81851	 14.30598	  5.49094	  0.01809	 25.49283	709.77002	 28.20	
  8.502	 22.507	 24.88586	 16.34477	  4.27890	 13.03663	  6.63367	  0.03057	 25.48481	709.64001	 28.20	
  8.491	 11.296	 24.92593	 16.78373	  3.97573	 11.71567	  7.92283	  0.04120	 25.49802	709.71997	 28.20	
  8.500	  0.000	 24.94669	 16.97353	  3.85171	 10.35037	  9.30983	  0.00820	 25.49485	709.70001	 28.20	
  8.491	-11.296	 24.97488	 16.86712	  3.99030	  9.08932	 10.72378	 -0.01537	 25.49975	709.53998	 28.20	
  8.502	-22.507	 24.97349	 16.45720	  4.30408	  7.85576	 12.09336	 -0.04742	 25.49558	709.59003	 28.30	
  8.494	-33.806	 24.99721	 15.76003	  4.83965	  6.75247	 13.36034	 -0.08484	 25.50103	709.69000	 28.30	
  8.495	-44.961	 25.01673	 14.84472	  5.57236	  5.83513	 14.44902	 -0.13556	 25.51050	709.58002	 28.30	
  8.487	-56.277	 25.00320	 13.75793	  6.45492	  5.13932	 15.39843	 -0.14806	 25.51264	709.71002	 28.30	
  8.492	-67.425	 25.00996	 12.50568	  7.54498	  4.60580	 16.09333	 -0.20593	 25.51802	709.64001	 28.30	
  8.510	-78.780	 24.97669	 11.10890	  8.79448	  4.21550	 16.53562	 -0.24017	 25.50373	709.60999	 28.40	
  8.500	-90.000	 24.94889	  9.72065	 10.10081	  4.10299	 16.66001	 -0.27092	 25.48219	709.58002	 28.40	
  8.510	-101.220	 24.93730	  8.37296	 11.44375	  4.17971	 16.53038	 -0.28740	 25.50805	709.59998	 28.40	
  8.492	-112.575	 24.91115	  7.08536	 12.82311	  4.48003	 16.06000	 -0.27426	 25.50376	709.57001	 28.40	
  8.487	-123.723	 24.86028	  5.96590	 14.07673	  4.96246	 15.33292	 -0.28113	 25.49214	709.66998	 28.40	
  8.495	-135.039	 24.83521	  4.99287	 15.23151	  5.69886	 14.39570	 -0.29108	 25.50558	709.65997	 28.40	
  8.494	-146.194	 24.78971	  4.22512	 16.16917	  6.59723	 13.27891	 -0.29948	 25.49442	709.52002	 28.50	
  8.502	-157.493	 24.76163	  3.65711	 16.89817	  7.68803	 12.00060	 -0.29445	 25.50006	709.50000	 28.50	
  8.491	-168.704	 24.72565	  3.31046	 17.30695	  8.90214	 10.61997	 -0.31627	 25.49220	709.53003	 28.50	
  8.500	180.000	 24.70469	  3.13262	 17.47221	 10.18217	  9.16922	 -0.34259	 25.49846	709.58002	 28.50	
 10.200	180.000	 24.24864	  1.67279	 18.58735	  9.81606	  8.77258	 -0.61973	 25.48865	709.67999	 28.50	
 10.191	-170.497	 24.25969	  1.79358	 18.44851	  8.50598	 10.23000	 -0.58788	 25.47403	709.53998	 28.50	
 10.210	-161.034	 24.28195	  2.04782	 18.09960	  7.23615	 11.66567	 -0.56254	 25.47927	709.64001	 28.50	
 10.194	-151.526	 24.32455	  2.51832	 17.48699	  6.11056	 13.00441	 -0.55755	 25.48295	709.67999	 28.50	
 10.190	-142.105	 24.37072	  3.16794	 16.65791	  5.14456	 14.20992	 -0.56820	 25.49153	709.65997	 28.50	
 10.215	-132.646	 24.39578	  3.99381	 15.60824	  4.25428	 15.33912	 -0.56592	 25.47811	709.64001	 28.50	
 10.203	-123.092	 24.42392	  4.99718	 14.40956	  3.55558	 16.29171	 -0.54817	 25.46279	709.66998	 28.50	
 10.192	-113.678	 24.47911	  6.12019	 13.13798	  3.06070	 17.03879	 -0.53502	 25.49286	709.70001	 28.60	
 10.208	-104.249	 24.50201	  7.33416	 11.77242	  2.73893	 17.54468	 -0.55574	 25.48625	709.72998	 28.60	
 10.210	-94.801	 24.55393	  8.68231	 10.40370	  2.58346	 17.81921	 -0.56568	 25.49162	709.76001	 28.60	
 10.210	-85.199	 24.57252	 10.08899	  9.06612	  2.59229	 17.81934	 -0.53117	 25.48546	709.71997	 28.60	
 10.208	-75.751	 24.60527	 11.49611	  7.76003	  2.77885	 17.58617	 -0.49872	 25.50500	709.73999	 28.60	
 10.192	-66.322	 24.60046	 12.84832	  6.51908	  3.13427	 17.08333	 -0.48968	 25.49615	709.78998	 28.60	
 10.203	-56.908	 24.61146	 14.14311	  5.40197	  3.65552	 16.36464	 -0.46962	 25.50705	709.75000	 28.60	
 10.215	-47.354	 24.60718	 15.31824	  4.42188	  4.35099	 15.39195	 -0.43541	 25.50134	709.58002	 28.70	
 10.190	-37.895	 24.61250	 16.32728	  3.68041	  5.25626	 14.28392	 -0.35804	 25.49863	709.60999	 28.70	
 10.194	-28.474	 24.60785	 17.13368	  3.08446	  6.27046	 13.09052	 -0.30289	 25.49918	709.73999	 28.70	
 10.210	-18.966	 24.59492	 17.73399	  2.64077	  7.43897	 11.75127	 -0.28620	 25.50574	709.71002	 28.70	
 10.191	 -9.503	 24.58550	 18.06404	  2.38763	  8.70835	 10.35020	 -0.24366	 25.50491	709.69000	 28.70	
 10.200	  0.000	 24.55259	 18.15221	  2.27822	 10.00247	  8.91190	 -0.19729	 25.49401	709.72998	 28.70	
 10.191	  9.503	 24.51915	 17.97555	  2.37733	 11.36632	  7.49115	 -0.18049	 25.49369	709.71002	 28.70	
 10.210	 18.966	 24.49014	 17.59329	  2.60844	 12.74271	  6.15673	 -0.17346	 25.49782	709.70001	 28.70	
 10.194	 28.474	 24.46324	 16.93140	  3.03407	 14.06590	  4.97418	 -0.20074	 25.50173	709.76001	 28.80	
 10.190	 37.895	 24.43847	 16.05393	  3.67635	 15.28664	  4.01262	 -0.20933	 25.51561	709.70001	 28.80	
 10.215	 47.354	 24.39033	 14.96878	  4.48332	 16.38124	  3.15929	 -0.20233	 25.50365	709.65997	 28.80	
 10.203	 56.908	 24.35876	 13.73205	  5.45802	 17.29941	  2.46864	 -0.21956	 25.50551	709.66998	 28.80	
 10.192	 66.322	 24.33213	 12.40506	  6.58341	 17.99000	  1.96438	 -0.27887	 25.50189	709.65997	 28.80	
 10.208	 75.751	 24.28906	 11.02993	  7.78333	 18.45021	  1.61000	 -0.32683	 25.48829	709.63000	 28.80	
 10.210	 85.199	 24.26272	  9.62650	  9.03030	 18.67130	  1.41189	 -0.34960	 25.48922	709.62000	 28.80	
 10.210	 94.801	 24.24145	  8.22618	 10.35472	 18.65130	  1.42259	 -0.34755	 25.49202	709.53998	 28.80	
 10.208	104.249	 24.21696	  6.93459	 11.73658	 18.38869	  1.57053	 -0.36304	 25.49261	709.62000	 28.90	
 10.192	113.678	 24.20591	  5.75869	 13.10011	 17.87683	  1.91148	 -0.41499	 25.49462	709.62000	 28.90	
 10.203	123.092	 24.18757	  4.67889	 14.38537	 17.13625	  2.40918	 -0.47953	 25.49304	709.59003	 28.90	
 10.215	132.646	 24.18730	  3.72847	 15.58991	 16.18125	  3.11648	 -0.49328	 25.49537	709.63000	 28.90	
 10.190	142.105	 24.18328	  2.96432	 16.61471	 15.04016	  3.98989	 -0.47888	 25.48099	709.66998	 28.90	
 10.194	151.526	 24.19574	  2.36268	 17.45450	 13.82248	  4.95458	 -0.49501	 25.48951	709.70001	 28.90	
 10.210	161.034	 24.19059	  1.97927	 18.06151	 12.49211	  6.10766	 -0.54973	 25.47456	709.64001	 28.90	
 10.191	170.497	 24.23060	  1.76466	 18.44082	 11.12287	  7.41645	 -0.61312	 25.48535	709.69000	 28.90	
 11.899	171.783	 23.68359	  0.26459	 19.53118	 10.70736	  6.97582	 -0.87109	 25.49162	709.66998	 28.90	
 11.890	163.610	 23.65234	  0.45056	 19.19416	 12.06344	  5.66657	 -0.83998	 25.48225	709.67999	 29.00	
 11.889	155.445	 23.63775	  0.75796	 18.64756	 13.39983	  4.53116	 -0.78573	 25.48289	709.70001	 29.00	
 11.909	147.299	 23.62129	  1.21188	 17.92605	 14.69398	  3.47890	 -0.75132	 25.48506	709.59003	 29.00	
 11.902	139.148	 23.62068	  1.86915	 16.99569	 15.91031	  2.52066	 -0.74926	 25.48530	709.67999	 29.00	
 11.894	130.867	 23.62280	  2.68822	 15.89246	 17.01100	  1.70808	 -0.76841	 25.49365	709.78998	 29.00	
 11.897	122.732	 23.64583	  3.63886	 14.68134	 17.94831	  1.05160	 -0.73971	 25.50167	709.72998	 29.00	
 11.903	114.597	 23.65070	  4.69367	 13.37955	 18.69749	  0.55737	 -0.68468	 25.49879	709.76001	 29.00	
 11.893	106.346	 23.67760	  5.86686	 12.01637	 19.26654	  0.21523	 -0.62418	 25.49719	709.84998	 29.00	
 11.892	 98.155	 23.69934	  7.12893	 10.61769	 19.61512	  0.03305	 -0.60781	 25.49652	709.90997	 29.00	
 11.900	 90.000	 23.72611	  8.45136	  9.31000	 19.75867	 -0.05753	 -0.59867	 25.51198	709.84998	 29.10	
 11.892	 81.845	 23.74402	  9.84609	  8.01468	 19.67399	  0.03366	 -0.59979	 25.49931	709.75000	 29.10	
 11.893	 73.654	 23.77581	 11.26189	  6.72504	 19.37898	  0.24196	 -0.57479	 25.50571	709.73999	 29.10	
 11.903	 65.403	 23.81303	 12.66462	  5.52384	 18.86256	  0.58885	 -0.52154	 25.50784	709.78998	 29.10	
 11.897	 57.268	 23.82596	 13.98555	  4.43569	 18.14252	  1.09137	 -0.47617	 25.49350	709.77002	 29.10	
 11.894	 49.133	 23.85149	 15.24070	  3.45734	 17.24631	  1.73937	 -0.44792	 25.49334	709.62000	 29.10	
 11.902	 40.852	 23.89279	 16.38713	  2.61444	 16.18624	  2.55383	 -0.44135	 25.50031	709.64001	 29.10	
 11.909	 32.701	 23.92753	 17.35361	  1.92200	 14.98811	  3.48732	 -0.42639	 25.48291	709.78998	 29.10	
 11.889	 24.555	 23.96678	 18.12474	  1.39156	 13.71290	  4.53758	 -0.42210	 25.47702	709.75000	 29.10	
 11.890	 16.390	 24.01067	 18.71927	  1.00178	 12.36964	  5.70364	 -0.39854	 25.49656	709.84003	 29.10	
 11.899	  8.217	 24.04014	 19.09263	  0.77122	 10.96510	  7.03675	 -0.41289	 25.49206	709.76001	 29.10	
 11.900	  0.000	 24.04862	 19.23953	  0.67022	  9.60562	  8.42587	 -0.42497	 25.48849	709.73999	 29.20	
 11.899	 -8.217	 24.07932	 19.15773	  0.75455	  8.28408	  9.90125	 -0.47342	 25.47586	709.78003	 29.20	
 11.890	-16.390	 24.10168	 18.86718	  1.00294	  6.99042	 11.33689	 -0.51891	 25.48329	709.71997	 29.20	
 11.889	-24.555	 24.11997	 18.36609	  1.38831	  5.79242	 12.70628	 -0.53792	 25.50090	709.67999	 29.20	
 11.909	-32.701	 24.12770	 17.67155	  1.89080	  4.72206	 13.97584	 -0.58152	 25.49336	709.70001	 29.20	
 11.902	-40.852	 24.12028	 16.76641	  2.53713	  3.74519	 15.17575	 -0.64949	 25.48573	709.73999	 29.20	
 11.894	-49.133	 24.13567	 15.67033	  3.37142	  2.90993	 16.29885	 -0.69822	 25.49030	709.78998	 29.20	
 11.897	-57.268	 24.12603	 14.44711	  4.35881	  2.22638	 17.21988	 -0.72653	 25.48520	709.72998	 29.20	
 11.903	-65.403	 24.12086	 13.15672	  5.44594	  1.69776	 17.95951	 -0.72532	 25.48118	709.79999	 29.20	
 11.893	-73.654	 24.10342	 11.77897	  6.67591	  1.34646	 18.49744	 -0.73095	 25.47020	709.69000	 29.20	
 11.892	-81.845	 24.10308	 10.36354	  7.98033	  1.12333	 18.83744	 -0.76018	 25.48833	709.77002	 29.20	
 11.900	-90.000	 24.07129	  8.95802	  9.31316	  1.02168	 18.94814	 -0.77342	 25.48645	709.70001	 29.30	
 11.892	-98.155	 24.03783	  7.59966	 10.65929	  1.10384	 18.81702	 -0.78723	 25.47767	709.71002	 29.30	
 11.893	-106.346	 24.00947	  6.30301	 12.03224	  1.29996	 18.47878	 -0.76810	 25.47643	709.70001	 29.30	
 11.903	-114.597	 23.98591	  5.09679	 13.40776	  1.65555	 17.92739	 -0.75513	 25.48852	709.75000	 29.30	
 11.897	-122.732	 23.94282	  4.00317	 14.70773	  2.18703	 17.17095	 -0.74910	 25.49211	709.75000	 29.30	
 11.894	-130.867	 23.89683	  3.01222	 15.91257	  2.84939	 16.22297	 -0.77256	 25.48222	709.21002	 29.30	
 11.902	-139.148	 23.84307	  2.13247	 17.01889	  3.63136	 15.09800	 -0.80020	 25.47405	709.76001	 29.30	
 11.909	-147.299	 23.81128	  1.40531	 17.95982	  4.56647	 13.90323	 -0.78539	 25.48564	709.84998	 29.30	
 11.889	-155.445	 23.79990	  0.88958	 18.69366	  5.63265	 12.62259	 -0.76981	 25.49905	709.79999	 29.30	
 11.890	-163.610	 23.75439	  0.51237	 19.22916	  6.80111	 11.24636	 -0.77143	 25.48899	709.06000	 29.30	
 11.899	-171.783	 23.72306	  0.26414	 19.55317	  8.06219	  9.78285	 -0.82690	 25.48863	709.44000	 29.30	
 11.900	180.000	 23.69384	  0.21536	 19.64465	  9.37307	  8.34984	 -0.87054	 25.47572	709.79999	 29.40	
 13.600	180.000	 23.03389	 -1.29457	 20.63375	  8.84390	  7.85573	 -1.05408	 25.46326	709.73999	 29.40	
 13.608	-172.853	 23.05666	 -1.23157	 20.55265	  7.55541	  9.23451	 -1.00383	 25.47382	709.52002	 29.40	
 13.611	-165.583	 23.07154	 -1.04598	 20.26137	  6.25161	 10.71896	 -0.95247	 25.45943	709.34998	 29.40	
 13.601	-158.353	 23.10512	 -0.69846	 19.77292	  5.06115	 12.13586	 -0.93227	 25.45176	709.83002	 29.40	
 13.609	-151.210	 23.14603	 -0.25720	 19.10669	  3.98595	 13.46677	 -0.92987	 25.45513	709.02002	 29.40	
 13.611	-143.999	 23.18440	  0.34846	 18.25821	  2.98731	 14.74763	 -0.93512	 25.45480	709.32001	 29.40	
 13.601	-136.825	 23.21942	  1.11704	 17.25577	  2.14992	 15.93464	 -0.91818	 25.44988	709.79999	 29.40	
 13.596	-129.640	 23.28085	  1.97013	 16.15047	  1.34318	 17.01231	 -0.90615	 25.45389	709.26001	 29.40	
