FileType=PCF
NHL=14
Date=03/07/19	10:42:33
Facility=APL
Serial=16071-12
Customer=NASA
NP=6
Mach=0.450000
Calibration=1:1
CalPts=490
TstPts=95
PortNumbering=AP Standard
Units=Torr C m/s kg/m^3 deg mm 
Theta[deg]	Phi[deg]	P1[Torr]	P2[Torr]	P3[Torr]	P4[Torr]	P5[Torr]	P6[Torr]	Pt[Torr]	Ps[Abs,Torr]	Ts[C]	
  0.000	  0.000	 92.23830	 38.47638	 41.05761	 41.55761	 37.99813	  1.10726	 92.03119	711.87000	 37.60	
  1.691	128.401	 92.22112	 35.22084	 44.00562	 45.25938	 33.88604	  0.95486	 92.06116	711.84998	 37.70	
  1.692	 77.194	 92.24242	 39.36861	 39.86010	 46.29059	 32.96890	  1.18308	 92.06892	711.96997	 37.70	
  1.699	 26.182	 92.25408	 43.15828	 36.58042	 43.73310	 35.76729	  1.30097	 92.06081	711.85999	 37.80	
  1.699	-26.182	 92.28542	 43.28295	 36.57110	 39.44690	 40.04477	  1.20404	 92.06647	711.77002	 37.80	
  1.692	-77.194	 92.33220	 39.61863	 39.88815	 36.85416	 42.64211	  1.00382	 92.12273	711.82001	 37.90	
  1.691	-128.401	 92.26498	 35.38860	 44.01630	 37.70431	 41.61528	  0.79399	 92.06336	711.91998	 37.90	
  1.700	180.000	 92.28535	 33.54974	 45.93572	 41.40736	 37.66208	  0.77611	 92.09985	711.84003	 38.00	
  3.400	180.000	 92.00510	 28.26211	 50.66659	 40.96750	 37.30624	  0.30349	 92.08253	711.91998	 38.00	
  3.388	-152.325	 92.13412	 29.52524	 49.50814	 36.61939	 41.88869	  0.30844	 92.14464	711.95001	 38.10	
  3.397	-124.529	 92.17957	 32.74706	 46.23880	 33.13707	 45.76500	  0.37433	 92.11373	711.89001	 38.10	
  3.399	-96.763	 92.27783	 37.12782	 41.77814	 31.35793	 47.75942	  0.53568	 92.16502	711.90997	 38.20	
  3.394	-69.283	 92.34449	 42.05298	 37.16643	 31.99386	 47.14706	  0.75689	 92.19513	711.91998	 38.30	
  3.400	-41.398	 92.33418	 46.12799	 33.13864	 34.90871	 44.18633	  0.98698	 92.16560	711.79999	 38.30	
  3.401	-14.021	 92.32691	 48.25860	 31.01029	 39.07740	 39.80926	  1.19823	 92.17725	711.83002	 38.40	
  3.401	 14.021	 92.30492	 48.16716	 30.99110	 43.79796	 35.02338	  1.28993	 92.20677	711.78003	 38.40	
  3.400	 41.398	 92.22367	 45.74042	 33.26746	 47.96684	 30.87773	  1.22583	 92.18948	711.78003	 38.50	
  3.394	 69.283	 92.18558	 41.56585	 37.16710	 50.61917	 28.25980	  1.09602	 92.24999	711.78003	 38.60	
  3.399	 96.763	 92.13480	 36.68732	 41.79528	 51.06646	 27.72499	  0.88900	 92.24617	711.77002	 38.60	
  3.397	124.529	 92.15218	 32.44223	 46.30781	 49.27851	 29.42619	  0.63201	 92.28621	711.82001	 38.70	
  3.388	152.325	 92.10614	 29.31509	 49.54057	 45.54235	 32.92284	  0.38652	 92.22240	711.84003	 38.70	
  5.099	161.165	 91.52682	 23.66937	 54.80027	 45.09155	 32.15240	 -0.26642	 92.25822	711.82001	 38.80	
  5.109	142.013	 91.49956	 25.74005	 52.13593	 49.60887	 27.81153	 -0.10612	 92.27072	711.81000	 38.80	
  5.095	123.033	 91.50893	 29.25849	 48.22486	 53.04619	 24.47468	  0.16436	 92.25771	711.88000	 38.90	
  5.105	104.191	 91.52124	 33.67175	 43.67087	 55.57476	 22.54722	  0.43162	 92.23951	711.90997	 38.90	
  5.093	 85.207	 91.59672	 38.43420	 38.78237	 56.10867	 22.16573	  0.59449	 92.24470	711.90002	 39.00	
  5.104	 66.290	 91.69762	 43.56246	 34.11618	 55.03617	 23.20651	  0.77981	 92.26149	711.78998	 39.10	
  5.094	 47.331	 91.77959	 47.77681	 30.03179	 51.88026	 25.97372	  0.91674	 92.23041	711.79999	 39.10	
  5.089	 28.397	 91.88874	 51.07715	 27.18778	 48.00248	 29.84262	  0.99695	 92.23571	711.87000	 39.20	
  5.096	  9.576	 91.98698	 53.00354	 25.70520	 43.33180	 34.43203	  1.01256	 92.25998	711.83002	 39.20	
  5.096	 -9.576	 92.10401	 53.14957	 25.68918	 38.47290	 39.39624	  0.88156	 92.28729	711.88000	 39.30	
  5.089	-28.397	 92.14474	 51.55194	 27.14670	 33.95072	 44.17438	  0.73869	 92.29143	711.94000	 39.30	
  5.094	-47.331	 92.16560	 48.43494	 30.00537	 29.98824	 48.46003	  0.50762	 92.29969	711.88000	 39.30	
  5.104	-66.290	 92.15066	 44.32580	 34.10653	 27.37946	 51.37395	  0.30219	 92.28230	711.88000	 39.40	
  5.093	-85.207	 92.12125	 39.18725	 38.86705	 26.26861	 52.59385	  0.07779	 92.31265	711.89001	 39.50	
  5.105	-104.191	 92.01412	 34.32286	 43.75430	 26.51967	 52.14170	 -0.13236	 92.28931	711.90997	 39.50	
  5.095	-123.033	 91.92519	 29.82151	 48.38900	 28.33880	 49.94991	 -0.20799	 92.27087	711.87000	 39.50	
  5.109	-142.013	 91.89853	 26.20747	 52.19312	 31.46362	 46.33471	 -0.30384	 92.38678	711.90997	 39.50	
  5.099	-161.165	 91.70786	 23.87894	 54.77103	 35.79070	 41.66129	 -0.34805	 92.29720	711.95001	 39.60	
  5.100	180.000	 91.63295	 23.01815	 55.72750	 40.45783	 36.81958	 -0.35406	 92.30776	711.91998	 39.70	
  6.800	180.000	 90.71942	 17.82551	 60.13638	 39.64078	 36.00695	 -1.12556	 92.30430	711.92999	 39.70	
  6.796	-166.229	 90.80489	 18.46178	 59.39156	 34.97730	 40.76271	 -1.11676	 92.30273	711.92999	 39.70	
  6.808	-152.311	 90.92094	 20.13676	 57.63943	 30.50690	 45.44124	 -1.11003	 92.30729	711.84998	 39.80	
  6.795	-138.383	 91.03803	 22.69222	 54.61015	 26.85300	 49.81804	 -1.08938	 92.29426	711.83002	 39.80	
  6.792	-124.591	 91.21433	 26.08447	 50.85399	 24.08021	 53.24401	 -0.97496	 92.31823	711.89001	 39.80	
  6.787	-110.754	 91.28166	 30.29132	 46.40847	 22.18100	 55.66505	 -0.90080	 92.26454	711.90002	 39.90	
  6.800	-96.985	 91.38107	 34.93777	 41.65990	 21.16390	 56.99007	 -0.82053	 92.27717	711.94000	 39.90	
  6.800	-83.015	 91.45036	 39.67434	 36.82555	 21.07774	 57.06848	 -0.63903	 92.25312	711.92999	 39.90	
  6.787	-69.246	 91.53438	 44.77055	 32.20272	 22.16625	 55.83337	 -0.41420	 92.27268	711.82001	 40.00	
  6.792	-55.409	 91.57587	 48.98980	 28.09191	 24.22535	 53.48354	 -0.29233	 92.31361	711.91998	 40.00	
  6.795	-41.617	 91.58717	 52.75586	 24.77130	 27.19230	 50.09523	 -0.05014	 92.32036	711.97998	 40.00	
  6.808	-27.689	 91.57632	 55.63401	 22.27160	 31.04540	 45.61334	  0.13703	 92.33331	711.91998	 40.10	
  6.796	-13.771	 91.51614	 57.33504	 20.71008	 35.76413	 40.78800	  0.31430	 92.31020	711.89001	 40.10	
  6.800	  0.000	 91.41768	 57.81849	 20.20474	 40.40873	 35.92823	  0.43497	 92.30868	711.90997	 40.10	
  6.796	 13.771	 91.29185	 57.06055	 20.65253	 45.01999	 31.22791	  0.47833	 92.26470	712.03998	 40.20	
  6.808	 27.689	 91.18309	 55.08555	 22.16338	 49.58399	 26.70552	  0.42381	 92.31676	711.89001	 40.20	
  6.795	 41.617	 91.06978	 51.88237	 24.76184	 53.83169	 22.71190	  0.35243	 92.29529	711.92999	 40.20	
  6.792	 55.409	 90.97627	 48.05367	 28.13597	 57.17303	 19.79811	  0.32160	 92.32549	711.87000	 40.30	
  6.787	 69.246	 90.80283	 43.61753	 32.09138	 59.42545	 17.79716	  0.18175	 92.25307	711.84003	 40.30	
  6.800	 83.015	 90.72177	 38.61609	 36.76945	 60.52651	 16.76417	 -0.01118	 92.26717	711.85999	 40.40	
  6.800	 96.985	 90.65046	 33.97719	 41.54101	 60.42708	 16.82484	 -0.15543	 92.29785	711.91998	 40.40	
  6.787	110.754	 90.62052	 29.38527	 46.25793	 59.10976	 17.98956	 -0.30433	 92.33074	711.90997	 40.50	
  6.792	124.591	 90.62244	 25.27264	 50.61168	 56.63718	 19.99245	 -0.55251	 92.32396	711.90997	 40.50	
  6.795	138.383	 90.58488	 22.13420	 54.60044	 52.89112	 22.83646	 -0.76748	 92.30514	711.95001	 40.50	
  6.808	152.311	 90.64059	 19.74872	 57.69230	 48.87826	 26.79166	 -0.94029	 92.35966	711.89001	 40.60	
  6.796	166.229	 90.63727	 18.27865	 59.44400	 44.24291	 31.29270	 -1.11036	 92.28133	711.89001	 40.60	
  8.491	168.704	 89.29839	 12.64276	 63.38995	 43.25149	 30.01460	 -1.96038	 92.23586	711.97998	 40.60	
  8.502	157.493	 89.23891	 13.87727	 61.94411	 47.93138	 25.24540	 -1.82835	 92.24340	711.84003	 40.60	
  8.494	146.194	 89.19611	 16.02609	 59.61784	 52.34118	 21.19630	 -1.67478	 92.21462	711.90997	 40.60	
  8.495	135.039	 89.24876	 18.65669	 56.30354	 56.63111	 18.04874	 -1.50430	 92.25825	711.96002	 40.70	
  8.487	123.723	 89.27990	 21.98631	 52.02194	 60.07172	 15.34249	 -1.32168	 92.27251	711.98999	 40.70	
  8.492	112.575	 89.30011	 25.73429	 47.66964	 62.45456	 13.32098	 -1.09985	 92.27823	711.95001	 40.70	
  8.510	101.220	 89.31221	 30.36750	 42.83679	 64.00420	 11.86101	 -0.93565	 92.25948	711.92999	 40.80	
  8.500	 90.000	 89.41309	 35.24808	 38.05603	 64.63818	 11.40487	 -0.82482	 92.27515	711.88000	 40.80	
  8.510	 78.780	 89.50830	 39.89670	 33.17622	 64.26068	 11.87457	 -0.65769	 92.28347	711.73999	 40.80	
  8.492	 67.425	 89.61437	 45.11042	 28.71695	 62.80872	 13.14924	 -0.48595	 92.26972	712.00000	 40.80	
  8.487	 56.277	 89.80560	 49.48178	 24.84318	 60.62675	 15.15959	 -0.39488	 92.32011	711.97998	 40.90	
  8.495	 44.961	 89.87894	 53.61631	 21.34488	 57.44129	 17.78800	 -0.41296	 92.27814	712.08002	 40.90	
  8.494	 33.806	 89.97057	 57.05000	 18.52172	 53.32993	 20.96063	 -0.34493	 92.27171	712.12000	 40.90	
  8.502	 22.507	 90.12501	 59.62020	 16.49712	 48.87575	 25.20761	 -0.23707	 92.27723	712.07001	 40.90	
  8.491	 11.296	 90.23514	 61.22933	 15.37507	 44.15142	 29.98543	 -0.16257	 92.27629	712.01001	 40.90	
  8.500	  0.000	 90.31908	 61.91541	 14.80780	 39.28323	 34.90113	 -0.27205	 92.26653	712.00000	 41.00	
  8.491	-11.296	 90.45952	 61.55460	 15.11594	 34.54619	 39.90073	 -0.45022	 92.29022	711.98999	 40.90	
  8.502	-22.507	 90.49541	 60.16436	 16.32273	 29.72889	 44.75636	 -0.62682	 92.27199	712.03003	 41.00	
  8.494	-33.806	 90.56317	 57.85905	 18.42434	 25.62225	 49.63938	 -0.78116	 92.27729	712.08002	 41.00	
  8.495	-44.961	 90.57685	 54.62828	 21.23161	 22.40620	 53.66968	 -0.97438	 92.25878	712.01001	 41.00	
  8.487	-56.277	 90.61169	 50.63683	 24.69691	 20.08821	 57.06054	 -1.17349	 92.30638	712.03003	 41.00	
  8.492	-67.425	 90.56977	 46.43243	 28.72421	 18.11278	 59.51960	 -1.30035	 92.31408	711.98999	 41.00	
  8.510	-78.780	 90.45943	 41.24097	 33.23994	 16.72508	 60.74205	 -1.45538	 92.24422	712.00000	 41.10	
  8.500	-90.000	 90.42352	 36.38905	 38.19144	 16.31415	 61.06423	 -1.63419	 92.29491	712.01001	 41.10	
  8.510	-101.220	 90.32844	 31.67508	 43.08939	 16.64694	 60.78031	 -1.75570	 92.29551	711.98999	 41.10	
  8.492	-112.575	 90.22814	 26.90623	 47.95883	 17.92253	 59.30681	 -1.79655	 92.28032	711.95001	 41.10	
  8.487	-123.723	 90.10858	 22.90521	 52.37720	 19.91845	 56.86056	 -1.81322	 92.29441	712.02002	 41.20	
  8.495	-135.039	 89.92500	 19.36952	 56.46862	 22.57506	 53.47727	 -1.87684	 92.26494	711.94000	 41.20	
  8.494	-146.194	 89.83067	 16.58161	 59.75540	 25.28222	 49.37951	 -1.90436	 92.30023	711.85999	 41.20	
  8.502	-157.493	 89.60870	 14.30923	 62.03767	 29.14810	 44.52666	 -1.92116	 92.24033	711.91998	 41.20	
  8.491	-168.704	 89.48414	 12.90226	 63.50348	 33.56838	 39.72497	 -1.99433	 92.24300	711.87000	 41.20	
  8.500	180.000	 89.44360	 12.33972	 64.04237	 38.57178	 34.87269	 -2.00053	 92.30386	711.82001	 41.20	
 10.200	180.000	 87.80836	  7.01502	 67.93862	 37.17070	 33.56321	 -2.89119	 92.26166	711.83002	 41.30	
 10.191	-170.497	 87.94953	  7.58862	 67.50731	 32.29187	 38.51559	 -2.86062	 92.28760	711.81000	 41.30	
 10.210	-161.034	 88.04931	  8.71562	 66.27876	 27.76487	 43.42559	 -2.61462	 92.26849	712.01001	 41.30	
 10.194	-151.526	 88.23882	 10.51816	 64.22324	 24.24788	 48.27911	 -2.57412	 92.30846	711.90002	 41.30	
 10.190	-142.105	 88.35233	 12.91945	 61.44857	 20.87111	 52.76019	 -2.55749	 92.25906	711.83002	 41.40	
 10.215	-132.646	 88.52601	 15.89161	 57.98399	 17.58457	 56.82414	 -2.57944	 92.29250	711.85999	 41.40	
 10.203	-123.092	 88.65278	 19.55839	 53.64568	 14.81871	 60.09196	 -2.46818	 92.26488	711.87000	 41.40	
 10.192	-113.678	 88.80653	 23.58687	 49.09808	 12.83941	 62.23447	 -2.59649	 92.25809	711.85999	 41.50	
 10.208	-104.249	 88.93875	 28.07891	 44.30111	 11.46615	 64.06860	 -2.48110	 92.27625	711.85999	 41.50	
 10.210	-94.801	 89.06133	 33.07276	 39.39547	 10.88601	 65.04700	 -2.54840	 92.29595	711.88000	 41.50	
 10.210	-85.199	 89.23187	 37.91621	 34.37711	 11.01091	 65.12621	 -2.39804	 92.35500	711.84998	 41.60	
 10.208	-75.751	 89.19946	 42.84626	 29.53323	 11.70246	 64.24377	 -2.28689	 92.29214	711.85999	 41.60	
 10.192	-66.322	 89.25660	 47.82929	 25.17443	 13.20095	 62.45441	 -2.18235	 92.28500	711.81000	 41.60	
 10.203	-56.908	 89.25159	 52.13733	 21.20634	 15.23175	 60.28645	 -2.09472	 92.26301	711.84998	 41.60	
 10.215	-47.354	 89.32765	 56.32067	 17.85567	 18.02260	 57.10892	 -1.90796	 92.30451	711.85999	 41.70	
 10.190	-37.895	 89.25254	 59.65829	 15.06943	 21.26499	 53.01115	 -1.67964	 92.22501	711.85999	 41.70	
 10.194	-28.474	 89.23118	 62.41105	 12.74856	 24.54139	 48.42277	 -1.49615	 92.22816	711.90997	 41.70	
 10.210	-18.966	 89.18681	 64.54357	 11.00284	 28.70564	 43.54253	 -1.38357	 92.26032	711.94000	 41.70	
 10.191	 -9.503	 89.10785	 65.70728	 10.11646	 33.44523	 38.52579	 -1.21017	 92.24394	711.94000	 41.80	
 10.200	  0.000	 88.98918	 66.06426	  9.66636	 38.28658	 33.59184	 -1.07299	 92.26403	711.95001	 41.80	
 10.191	  9.503	 88.87650	 65.42786	 10.09209	 43.17062	 28.59715	 -1.03840	 92.29382	711.90002	 41.80	
 10.210	 18.966	 88.74348	 63.96268	 11.25597	 48.01438	 23.70879	 -0.94671	 92.30375	711.89001	 41.80	
 10.194	 28.474	 88.60862	 61.56847	 13.07534	 52.56394	 19.62357	 -1.04700	 92.30857	711.92999	 41.80	
 10.190	 37.895	 88.44318	 58.64121	 15.36069	 57.09478	 15.93760	 -1.14837	 92.29163	711.95001	 41.90	
 10.215	 47.354	 88.27428	 54.88194	 18.11424	 60.96841	 12.75818	 -1.58774	 92.25692	711.84998	 41.90	
 10.203	 56.908	 88.14870	 50.53355	 21.35090	 63.99564	 10.25482	 -1.42554	 92.29647	711.88000	 41.90	
 10.192	 66.322	 88.00665	 46.08029	 25.26149	 66.30705	  8.28084	 -1.36354	 92.28193	711.92999	 41.90	
 10.208	 75.751	 87.87528	 40.97367	 29.56059	 67.74770	  6.96779	 -1.45689	 92.28134	711.78003	 41.90	
 10.210	 85.199	 87.78165	 36.24498	 34.21441	 68.53452	  6.26220	 -1.59886	 92.27307	711.84998	 41.90	
 10.210	 94.801	 87.71120	 31.21813	 39.25338	 68.41134	  6.26454	 -1.74865	 92.30967	711.84998	 42.00	
 10.208	104.249	 87.64907	 26.31740	 44.10699	 67.62305	  6.92930	 -1.87966	 92.31438	711.89001	 42.00	
 10.192	113.678	 87.54086	 22.15846	 48.73503	 65.81428	  8.27092	 -2.18368	 92.25914	711.94000	 42.00	
 10.203	123.092	 87.52573	 18.30611	 53.29119	 63.38734	 10.29328	 -2.46291	 92.26049	712.08002	 42.00	
 10.215	132.646	 87.52448	 14.85407	 57.71074	 60.12326	 12.98294	 -2.56758	 92.25831	711.96002	 42.00	
 10.190	142.105	 87.56908	 12.11626	 61.30676	 56.04259	 16.29409	 -2.46511	 92.27007	712.03003	 42.00	
 10.194	151.526	 87.61690	  9.95931	 64.05424	 51.51448	 19.83001	 -2.52609	 92.32585	711.94000	 42.00	
 10.210	161.034	 87.64445	  8.29616	 66.28976	 46.90361	 23.64782	 -2.66728	 92.28154	711.92999	 42.00	
 10.191	170.497	 87.76168	  7.34093	 67.47183	 42.16245	 28.49632	 -2.84158	 92.28651	712.04999	 42.00	
 11.899	171.783	 85.83259	  1.25825	 71.28299	 40.57798	 26.95340	 -3.81176	 92.27760	712.01001	 42.00	
 11.890	163.610	 85.76868	  2.25024	 70.04564	 45.40574	 22.36811	 -3.74019	 92.29381	712.06000	 42.00	
 11.889	155.445	 85.67196	  3.85696	 68.12636	 50.03212	 18.50713	 -3.58762	 92.27090	711.97998	 42.00	
 11.909	147.299	 85.57700	  5.90633	 65.61967	 54.49943	 14.67009	 -3.51425	 92.26873	711.94000	 42.00	
 11.902	139.148	 85.52187	  8.35654	 62.50845	 59.10806	 11.12898	 -3.54430	 92.22068	711.91998	 42.00	
 11.894	130.867	 85.55544	 11.47575	 58.77339	 62.99553	  8.07913	 -3.54379	 92.24797	711.96002	 42.00	
 11.897	122.732	 85.58884	 14.96000	 54.34130	 66.07692	  5.58487	 -3.40236	 92.25481	711.97998	 42.00	
 11.903	114.597	 85.62717	 18.62026	 49.76782	 68.63194	  3.50172	 -3.24684	 92.28812	712.09003	 42.10	
 11.893	106.346	 85.67847	 22.69992	 45.00900	 70.43817	  1.99337	 -2.95512	 92.27567	712.09003	 42.10	
 11.892	 98.155	 85.74476	 27.23979	 40.09389	 71.71502	  1.21520	 -2.96034	 92.26395	711.95001	 42.10	
 11.900	 90.000	 85.81007	 32.06695	 35.16056	 72.22535	  0.93775	 -2.60814	 92.27096	712.01001	 42.10	
 11.892	 81.845	 85.89349	 37.08456	 30.37819	 71.90608	  1.39194	 -2.60864	 92.23243	711.98999	 42.10	
 11.893	 73.654	 86.00449	 41.93891	 25.85572	 70.86214	  2.34061	 -2.91374	 92.23086	712.03003	 42.10	
 11.903	 65.403	 86.08857	 46.99403	 21.66340	 69.05477	  3.58870	 -2.81633	 92.20518	712.09003	 42.10	
 11.897	 57.268	 86.26084	 51.50979	 18.21294	 66.79314	  5.53182	 -2.77961	 92.26334	712.01001	 42.10	
 11.894	 49.133	 86.30541	 55.85599	 14.69789	 63.88514	  7.86669	 -2.69886	 92.19946	712.03003	 42.20	
 11.902	 40.852	 86.52440	 59.86332	 11.55964	 60.32321	 10.85642	 -2.14381	 92.25220	712.16998	 42.20	
 11.909	 32.701	 86.69368	 63.03138	  9.06189	 56.07174	 14.35401	 -2.43090	 92.23669	712.03998	 42.20	
 11.889	 24.555	 86.95052	 65.81852	  6.90339	 51.40789	 18.30624	 -2.64268	 92.28809	712.03998	 42.20	
 11.890	 16.390	 87.06171	 67.89219	  5.25016	 46.75567	 22.43506	 -1.90448	 92.25127	712.15002	 42.20	
 11.899	  8.217	 87.22847	 69.24007	  4.32394	 41.89543	 27.24597	 -2.09736	 92.26800	712.07001	 42.20	
 11.900	  0.000	 87.32052	 69.81717	  4.05778	 36.97654	 32.29868	 -2.06482	 92.22764	712.04999	 42.20	
 11.899	 -8.217	 87.45855	 69.61398	  4.39983	 32.09312	 37.30008	 -2.09999	 92.26633	712.04999	 42.30	
 11.890	-16.390	 87.54168	 68.53844	  5.26302	 27.45124	 42.30468	 -2.26638	 92.22775	711.97998	 42.30	
 11.889	-24.555	 87.53636	 66.70827	  6.64112	 23.76671	 47.09738	 -2.58087	 92.17133	711.94000	 42.30	
 11.909	-32.701	 87.61411	 64.30073	  8.54988	 19.87994	 51.92284	 -2.54411	 92.24026	711.96002	 42.30	
 11.902	-40.852	 87.62460	 61.20356	 11.40756	 16.18371	 56.33761	 -2.70951	 92.21798	712.01001	 42.40	
 11.894	-49.133	 87.64110	 57.62619	 14.72339	 12.98340	 60.13753	 -2.91487	 92.24130	712.04999	 42.40	
 11.897	-57.268	 87.67499	 53.46419	 18.19831	 10.34012	 62.91046	 -3.26519	 92.27424	712.08002	 42.40	
 11.903	-65.403	 87.60064	 49.00451	 21.96657	  8.04055	 65.46625	 -3.14852	 92.21299	712.04999	 42.40	
 11.893	-73.654	 87.61049	 44.18476	 26.03541	  6.57879	 67.42229	 -3.20468	 92.25188	712.01001	 42.40	
 11.892	-81.845	 87.54261	 39.04044	 30.62856	  5.66010	 68.59691	 -3.28147	 92.24762	712.04999	 42.40	
 11.900	-90.000	 87.42541	 34.36179	 35.27756	  5.15937	 68.97437	 -3.26467	 92.21533	711.95001	 42.40	
 11.892	-98.155	 87.34016	 29.29174	 40.37816	  5.38481	 68.54779	 -3.35529	 92.23277	712.03998	 42.40	
 11.893	-106.346	 87.18481	 24.55282	 45.31035	  6.15142	 67.28178	 -3.28977	 92.19463	712.06000	 42.40	
 11.903	-114.597	 87.08849	 20.18148	 50.10279	  7.41045	 65.32687	 -3.20735	 92.24651	711.96002	 42.50	
 11.897	-122.732	 86.87451	 16.20544	 54.67939	  9.24291	 62.62804	 -3.20038	 92.21015	711.96002	 42.50	
 11.894	-130.867	 86.72636	 12.63660	 59.08556	 11.88713	 59.80911	 -3.31958	 92.25159	712.06000	 42.50	
 11.902	-139.148	 86.53123	  9.38119	 62.78995	 15.50543	 55.97147	 -3.41210	 92.23101	712.06000	 42.50	
 11.909	-147.299	 86.37131	  6.72832	 65.85638	 19.00916	 51.54750	 -3.42070	 92.21503	712.08002	 42.60	
 11.889	-155.445	 86.20563	  4.62348	 68.23460	 22.82660	 46.71016	 -3.37705	 92.19003	712.09998	 42.60	
 11.890	-163.610	 86.15782	  3.05471	 70.17258	 26.54337	 42.00737	 -3.45223	 92.28056	712.01001	 42.60	
 11.899	-171.783	 85.95272	  1.83834	 71.27480	 30.83691	 36.96224	 -3.69267	 92.19195	712.03003	 42.60	
 11.900	180.000	 85.86565	  1.25245	 71.66618	 35.49368	 31.97776	 -3.85129	 92.22149	712.20001	 42.60	
 13.600	180.000	 83.54720	 -4.21157	 75.14651	 33.78948	 30.05283	 -4.44720	 92.21515	712.20001	 42.60	
 13.608	-172.853	 83.66830	 -3.86190	 74.88735	 29.23515	 35.07330	 -4.24032	 92.23295	712.04999	 42.60	
 13.611	-165.583	 83.78316	 -2.96270	 73.90204	 25.29824	 40.21740	 -4.04813	 92.19880	712.03998	 42.70	
 13.601	-158.353	 83.94071	 -1.48743	 72.20484	 21.13284	 45.05758	 -3.90746	 92.20166	712.13000	 42.70	
 13.609	-151.210	 84.12364	  0.30496	 69.82504	 17.11553	 49.98587	 -3.88057	 92.19037	712.06000	 42.70	
 13.611	-143.999	 84.20004	  2.61836	 67.05618	 12.68026	 54.68328	 -3.92874	 92.16704	712.09998	 42.70	
 13.601	-136.825	 84.38023	  5.51066	 63.72352	  9.37944	 58.87859	 -3.88515	 92.18862	712.10999	 42.70	
 13.596	-129.640	 84.58418	  8.86854	 60.01340	  6.64563	 62.20437	 -3.76150	 92.19901	711.98999	 42.70	
