FileType=PCF
NHL=14
Date=03/06/19	13:31:27
Facility=APL
Serial=16071-12
Customer=NASA
NP=6
Mach=0.036000
Calibration=1:1
CalPts=490
TstPts=95
PortNumbering=AP Standard
Units=Torr C m/s kg/m^3 deg mm 
Theta[deg]	Phi[deg]	P1[Torr]	P2[Torr]	P3[Torr]	P4[Torr]	P5[Torr]	P6[Torr]	Pt[Torr]	Ps[Abs,Torr]	Ts[C]	
  0.000	  0.000	  0.70606	  0.32151	  0.32028	  0.33906	  0.30640	  0.04471	  0.70374	709.59003	 20.40	
  1.691	128.401	  0.70396	  0.29688	  0.34051	  0.35890	  0.28045	  0.04484	  0.70021	709.41998	 20.40	
  1.692	 77.194	  0.70385	  0.32248	  0.31238	  0.36556	  0.27535	  0.04687	  0.70136	709.57001	 20.40	
  1.699	 26.182	  0.70425	  0.34489	  0.29421	  0.34727	  0.29204	  0.04360	  0.70162	709.57001	 20.40	
  1.699	-26.182	  0.70587	  0.34582	  0.29354	  0.32183	  0.31949	  0.04237	  0.70216	709.56000	 20.40	
  1.692	-77.194	  0.70599	  0.32549	  0.31327	  0.30814	  0.33682	  0.03920	  0.70340	709.53998	 20.40	
  1.691	-128.401	  0.70415	  0.29883	  0.33808	  0.31078	  0.32940	  0.03714	  0.69976	709.56000	 20.40	
  1.700	180.000	  0.70405	  0.28584	  0.35287	  0.33246	  0.30415	  0.04044	  0.70101	709.62000	 20.40	
  3.400	180.000	  0.70108	  0.24845	  0.38798	  0.32929	  0.30151	  0.03613	  0.69952	709.53003	 20.50	
  3.388	-152.325	  0.70030	  0.25627	  0.37842	  0.29852	  0.33336	  0.03321	  0.69797	709.53998	 20.40	
  3.397	-124.529	  0.69670	  0.27543	  0.35261	  0.27602	  0.35751	  0.03444	  0.69523	709.70001	 20.50	
  3.399	-96.763	  0.70457	  0.30653	  0.32592	  0.26911	  0.37362	  0.03376	  0.70228	709.51001	 20.50	
  3.394	-69.283	  0.70369	  0.33777	  0.29370	  0.27251	  0.36852	  0.03473	  0.70085	709.59998	 20.50	
  3.400	-41.398	  0.70295	  0.36604	  0.26791	  0.28800	  0.35000	  0.03853	  0.69998	709.58002	 20.50	
  3.401	-14.021	  0.70654	  0.38355	  0.25703	  0.31665	  0.32070	  0.04224	  0.70443	709.54999	 20.50	
  3.401	 14.021	  0.69852	  0.37855	  0.25377	  0.34548	  0.28418	  0.04442	  0.69606	709.48999	 20.50	
  3.400	 41.398	  0.69938	  0.36267	  0.26829	  0.37584	  0.25840	  0.04508	  0.69677	709.46997	 20.50	
  3.394	 69.283	  0.69811	  0.33274	  0.29108	  0.39445	  0.24160	  0.04529	  0.69647	709.57001	 20.50	
  3.399	 96.763	  0.70228	  0.30161	  0.32466	  0.40129	  0.23804	  0.04296	  0.70025	709.59003	 20.50	
  3.397	124.529	  0.69995	  0.27191	  0.35666	  0.38824	  0.24853	  0.04255	  0.70051	709.41998	 20.50	
  3.388	152.325	  0.70461	  0.25378	  0.38243	  0.36350	  0.27181	  0.03937	  0.70362	709.46002	 20.50	
  5.099	161.165	  0.69869	  0.21212	  0.41932	  0.35888	  0.26467	  0.03263	  0.70074	709.56000	 20.50	
  5.109	142.013	  0.68756	  0.22251	  0.39619	  0.38690	  0.23401	  0.03628	  0.69077	709.46997	 20.50	
  5.095	123.033	  0.69456	  0.24777	  0.37267	  0.41599	  0.21530	  0.03907	  0.69855	709.53003	 20.50	
  5.105	104.191	  0.69268	  0.27677	  0.33738	  0.42982	  0.20251	  0.04122	  0.69593	709.48999	 20.50	
  5.093	 85.207	  0.69633	  0.31206	  0.30383	  0.43486	  0.20120	  0.04285	  0.70023	709.56000	 20.50	
  5.104	 66.290	  0.69635	  0.34562	  0.27129	  0.42710	  0.20697	  0.04308	  0.69760	709.56000	 20.60	
  5.094	 47.331	  0.69813	  0.37764	  0.24606	  0.40671	  0.22426	  0.04263	  0.69904	709.45001	 20.60	
  5.089	 28.397	  0.69948	  0.40175	  0.22649	  0.37757	  0.25037	  0.04196	  0.70093	709.48999	 20.60	
  5.096	  9.576	  0.69927	  0.41558	  0.21562	  0.34332	  0.28215	  0.03901	  0.70003	709.48999	 20.60	
  5.096	 -9.576	  0.69788	  0.41488	  0.21678	  0.30918	  0.31656	  0.03715	  0.69748	709.56000	 20.60	
  5.089	-28.397	  0.70276	  0.40655	  0.22682	  0.28127	  0.35184	  0.03357	  0.70152	709.64001	 20.60	
  5.094	-47.331	  0.69797	  0.38145	  0.24345	  0.25417	  0.37791	  0.03102	  0.69652	709.59998	 20.60	
  5.104	-66.290	  0.69753	  0.35059	  0.27099	  0.23670	  0.39926	  0.02800	  0.69650	709.56000	 20.60	
  5.093	-85.207	  0.70125	  0.31949	  0.30373	  0.23226	  0.41042	  0.02606	  0.70136	709.57001	 20.60	
  5.105	-104.191	  0.69771	  0.28357	  0.33714	  0.23214	  0.40448	  0.02699	  0.69828	709.57001	 20.60	
  5.095	-123.033	  0.69605	  0.25449	  0.36882	  0.24420	  0.39022	  0.02821	  0.69676	709.65002	 20.60	
  5.109	-142.013	  0.69739	  0.23085	  0.39814	  0.26429	  0.36546	  0.02805	  0.70039	709.57001	 20.60	
  5.099	-161.165	  0.70401	  0.21781	  0.41952	  0.29521	  0.33590	  0.02797	  0.70685	709.41998	 20.60	
  5.100	180.000	  0.69636	  0.20831	  0.42322	  0.32404	  0.29994	  0.03020	  0.70023	709.48999	 20.60	
  6.800	180.000	  0.68998	  0.16907	  0.45692	  0.31738	  0.29415	  0.02427	  0.69947	709.56000	 20.60	
  6.796	-166.229	  0.69667	  0.17502	  0.45464	  0.28938	  0.32790	  0.02029	  0.70615	709.57001	 20.60	
  6.808	-152.311	  0.68835	  0.18505	  0.43527	  0.25549	  0.35840	  0.01734	  0.69723	709.54999	 20.60	
  6.795	-138.383	  0.68918	  0.20320	  0.41331	  0.23066	  0.38940	  0.01511	  0.69687	709.62000	 20.70	
  6.792	-124.591	  0.69666	  0.22834	  0.39074	  0.21433	  0.41747	  0.01655	  0.70409	709.52002	 20.70	
  6.787	-110.754	  0.69390	  0.25597	  0.35449	  0.19933	  0.43181	  0.01541	  0.69951	709.65997	 20.70	
  6.800	-96.985	  0.69572	  0.28823	  0.32320	  0.19229	  0.44481	  0.01473	  0.70051	709.65997	 20.70	
  6.800	-83.015	  0.69254	  0.32079	  0.28717	  0.19167	  0.44215	  0.01596	  0.69811	709.57001	 20.70	
  6.787	-69.246	  0.69516	  0.35560	  0.25654	  0.19975	  0.43475	  0.01983	  0.70062	709.57001	 20.70	
  6.792	-55.409	  0.69162	  0.38532	  0.22614	  0.21161	  0.41450	  0.02245	  0.69616	709.57001	 20.70	
  6.795	-41.617	  0.69341	  0.41260	  0.20473	  0.23060	  0.39241	  0.02308	  0.69743	709.71997	 20.70	
  6.808	-27.689	  0.69400	  0.43412	  0.18699	  0.25676	  0.36188	  0.02700	  0.69875	709.65997	 20.70	
  6.796	-13.771	  0.69609	  0.44856	  0.17815	  0.28784	  0.32985	  0.03040	  0.70171	709.56000	 20.70	
  6.800	  0.000	  0.69665	  0.45304	  0.17395	  0.32056	  0.29502	  0.03224	  0.70192	709.54999	 20.70	
  6.796	 13.771	  0.69375	  0.44630	  0.17889	  0.35413	  0.26030	  0.03689	  0.70002	709.63000	 20.70	
  6.808	 27.689	  0.69438	  0.43278	  0.18876	  0.38771	  0.23028	  0.03827	  0.70242	709.65002	 20.70	
  6.795	 41.617	  0.69240	  0.40914	  0.20553	  0.41748	  0.20450	  0.03911	  0.70029	709.58002	 20.70	
  6.792	 55.409	  0.68857	  0.37949	  0.22776	  0.44019	  0.18368	  0.04055	  0.69735	709.70001	 20.80	
  6.787	 69.246	  0.69337	  0.34983	  0.25758	  0.46043	  0.17225	  0.03961	  0.70310	709.59998	 20.80	
  6.800	 83.015	  0.68567	  0.31215	  0.28684	  0.46606	  0.16326	  0.03928	  0.69671	709.66998	 20.80	
  6.800	 96.985	  0.68742	  0.27853	  0.32143	  0.46605	  0.16269	  0.03837	  0.69809	709.62000	 20.80	
  6.787	110.754	  0.68682	  0.24574	  0.35548	  0.45811	  0.16854	  0.03664	  0.69917	709.60999	 20.80	
  6.792	124.591	  0.68403	  0.21801	  0.38718	  0.43894	  0.18327	  0.03364	  0.69699	709.67999	 20.80	
  6.795	138.383	  0.68706	  0.19624	  0.41670	  0.41552	  0.20277	  0.03129	  0.69941	709.64001	 20.80	
  6.808	152.311	  0.68531	  0.17922	  0.43694	  0.38335	  0.22915	  0.03025	  0.69701	709.72998	 20.80	
  6.796	166.229	  0.69061	  0.17088	  0.45246	  0.35136	  0.26131	  0.02702	  0.70165	709.71997	 20.80	
  8.491	168.704	  0.67737	  0.13073	  0.48243	  0.34375	  0.25155	  0.01954	  0.69830	709.63000	 20.80	
  8.502	157.493	  0.67584	  0.13780	  0.47057	  0.37800	  0.21944	  0.02209	  0.69729	709.62000	 20.80	
  8.494	146.194	  0.68397	  0.15257	  0.45793	  0.41481	  0.19350	  0.02308	  0.70546	709.56000	 20.80	
  8.495	135.039	  0.67919	  0.17108	  0.43090	  0.44259	  0.16876	  0.02515	  0.70211	709.65997	 20.80	
  8.487	123.723	  0.67613	  0.19259	  0.39992	  0.46479	  0.14865	  0.02656	  0.69729	709.56000	 20.80	
  8.492	112.575	  0.67932	  0.22247	  0.36963	  0.48597	  0.13595	  0.02751	  0.70076	709.67999	 20.90	
  8.510	101.220	  0.67777	  0.25236	  0.33281	  0.49561	  0.12715	  0.03136	  0.69870	709.69000	 20.90	
  8.500	 90.000	  0.67853	  0.28658	  0.29844	  0.49999	  0.12471	  0.03352	  0.69917	709.60999	 20.90	
  8.510	 78.780	  0.67884	  0.32102	  0.26421	  0.49636	  0.12692	  0.03511	  0.69815	709.57001	 20.90	
  8.492	 67.425	  0.68119	  0.35842	  0.23156	  0.48645	  0.13633	  0.03513	  0.70013	709.48999	 20.90	
  8.487	 56.277	  0.68219	  0.39153	  0.20513	  0.46819	  0.15076	  0.03530	  0.70058	709.57001	 20.90	
  8.495	 44.961	  0.68347	  0.42192	  0.18090	  0.44424	  0.16861	  0.03507	  0.69955	709.58002	 20.90	
  8.494	 33.806	  0.67972	  0.44357	  0.16063	  0.41310	  0.19191	  0.03515	  0.69568	709.51001	 20.90	
  8.502	 22.507	  0.68632	  0.46715	  0.14715	  0.38360	  0.22111	  0.03325	  0.70270	709.47998	 20.90	
  8.491	 11.296	  0.68156	  0.47480	  0.13854	  0.34602	  0.25232	  0.03178	  0.69597	709.64001	 20.90	
  8.500	  0.000	  0.68643	  0.48365	  0.13505	  0.31327	  0.28807	  0.02736	  0.70051	709.59003	 20.90	
  8.491	-11.296	  0.68454	  0.47915	  0.13719	  0.28019	  0.32103	  0.02558	  0.69801	709.58002	 20.90	
  8.502	-22.507	  0.68640	  0.46961	  0.14575	  0.24796	  0.35733	  0.02053	  0.69972	709.47998	 20.90	
  8.494	-33.806	  0.68864	  0.45179	  0.16045	  0.22033	  0.39185	  0.01703	  0.70115	709.59998	 20.90	
  8.495	-44.961	  0.68403	  0.42615	  0.17913	  0.19769	  0.41694	  0.01600	  0.69696	709.53998	 20.90	
  8.487	-56.277	  0.68962	  0.40007	  0.20415	  0.17904	  0.44539	  0.01158	  0.70221	709.54999	 20.90	
  8.492	-67.425	  0.68878	  0.36637	  0.23262	  0.16463	  0.46398	  0.01064	  0.70180	709.56000	 20.90	
  8.510	-78.780	  0.68918	  0.33217	  0.26392	  0.15581	  0.47624	  0.00894	  0.70216	709.51001	 21.00	
  8.500	-90.000	  0.68542	  0.29625	  0.29589	  0.15289	  0.47774	  0.00773	  0.70053	709.50000	 21.00	
  8.510	-101.220	  0.68663	  0.26239	  0.33155	  0.15503	  0.47552	  0.00455	  0.70122	709.67999	 21.00	
  8.492	-112.575	  0.68646	  0.23111	  0.36654	  0.16381	  0.46341	  0.00682	  0.70200	709.60999	 21.00	
  8.487	-123.723	  0.68745	  0.20305	  0.39910	  0.17771	  0.44540	  0.00667	  0.70158	709.51001	 21.00	
  8.495	-135.039	  0.68138	  0.17637	  0.42631	  0.19474	  0.41792	  0.01020	  0.69848	709.51001	 21.00	
  8.494	-146.194	  0.68380	  0.15833	  0.45278	  0.21856	  0.39096	  0.00968	  0.70215	709.64001	 21.00	
  8.502	-157.493	  0.68109	  0.14251	  0.47043	  0.24585	  0.35766	  0.01314	  0.69955	709.46997	 21.00	
  8.491	-168.704	  0.67984	  0.13320	  0.48243	  0.27653	  0.32263	  0.01544	  0.69827	709.45001	 21.00	
  8.500	180.000	  0.67743	  0.12885	  0.48561	  0.30896	  0.28684	  0.01766	  0.69847	709.53998	 21.00	
 10.200	180.000	  0.66477	  0.08951	  0.51493	  0.29926	  0.27733	  0.00876	  0.69709	709.60999	 21.00	
 10.191	-170.497	  0.66792	  0.09410	  0.51233	  0.26676	  0.31395	  0.00798	  0.69879	709.65002	 21.00	
 10.210	-161.034	  0.66671	  0.10037	  0.50162	  0.23392	  0.34874	  0.00385	  0.69732	709.46997	 21.00	
 10.194	-151.526	  0.66972	  0.11208	  0.48678	  0.20423	  0.38366	  0.00246	  0.69845	709.46997	 21.00	
 10.190	-142.105	  0.67036	  0.13063	  0.46465	  0.17989	  0.41517	 -0.00129	  0.69911	709.48999	 21.00	
 10.215	-132.646	  0.67355	  0.15098	  0.43929	  0.15865	  0.44516	 -0.00176	  0.70149	709.52002	 21.00	
 10.203	-123.092	  0.66744	  0.17511	  0.40388	  0.13943	  0.46571	 -0.00221	  0.69376	709.52002	 21.10	
 10.192	-113.678	  0.67083	  0.20320	  0.37398	  0.12706	  0.48525	 -0.00462	  0.69606	709.54999	 21.10	
 10.208	-104.249	  0.67243	  0.23598	  0.33863	  0.11793	  0.50025	 -0.00452	  0.69750	709.53003	 21.10	
 10.210	-94.801	  0.66942	  0.26747	  0.30195	  0.11319	  0.50343	 -0.00435	  0.69410	709.48999	 21.10	
 10.210	-85.199	  0.67273	  0.30431	  0.26777	  0.11275	  0.50580	 -0.00560	  0.69657	709.63000	 21.10	
 10.208	-75.751	  0.67264	  0.33956	  0.23404	  0.11865	  0.49878	 -0.00113	  0.69556	709.53998	 21.10	
 10.192	-66.322	  0.67929	  0.37697	  0.20466	  0.12868	  0.48960	  0.00005	  0.70193	709.42999	 21.10	
 10.203	-56.908	  0.67753	  0.40881	  0.17774	  0.14194	  0.47054	  0.00421	  0.70095	709.60999	 21.10	
 10.215	-47.354	  0.67308	  0.43601	  0.15312	  0.15989	  0.44303	  0.00600	  0.69551	709.62000	 21.10	
 10.190	-37.895	  0.67909	  0.46602	  0.13321	  0.18308	  0.41820	  0.00706	  0.70169	709.46002	 21.10	
 10.194	-28.474	  0.68311	  0.49006	  0.11732	  0.20954	  0.38832	  0.01140	  0.70693	709.50000	 21.10	
 10.210	-18.966	  0.67472	  0.49997	  0.10488	  0.23820	  0.35011	  0.01438	  0.69853	709.53003	 21.10	
 10.191	 -9.503	  0.67278	  0.50701	  0.09895	  0.27019	  0.31367	  0.01700	  0.69583	709.58002	 21.10	
 10.200	  0.000	  0.67617	  0.51281	  0.09500	  0.30501	  0.27905	  0.02029	  0.70110	709.47998	 21.10	
 10.191	  9.503	  0.67319	  0.50783	  0.09820	  0.33883	  0.24430	  0.02271	  0.69862	709.53998	 21.10	
 10.210	 18.966	  0.67824	  0.50110	  0.10437	  0.37655	  0.21237	  0.02270	  0.70528	709.58002	 21.20	
 10.194	 28.474	  0.67071	  0.47765	  0.11704	  0.40666	  0.18130	  0.02661	  0.69625	709.57001	 21.10	
 10.190	 37.895	  0.67156	  0.45705	  0.13324	  0.43947	  0.15653	  0.02795	  0.70023	709.53003	 21.20	
 10.215	 47.354	  0.67433	  0.43184	  0.15356	  0.47135	  0.13278	  0.02926	  0.70252	709.59003	 21.20	
 10.203	 56.908	  0.66937	  0.39883	  0.17757	  0.49270	  0.11490	  0.02892	  0.69912	709.51001	 21.20	
 10.192	 66.322	  0.66745	  0.36457	  0.20527	  0.50992	  0.10070	  0.02851	  0.69773	709.50000	 21.20	
 10.208	 75.751	  0.66375	  0.32842	  0.23565	  0.52190	  0.09131	  0.02686	  0.69641	709.42999	 21.20	
 10.210	 85.199	  0.66576	  0.29300	  0.27007	  0.52869	  0.08672	  0.02626	  0.69875	709.39001	 21.20	
 10.210	 94.801	  0.66648	  0.25865	  0.30609	  0.53103	  0.08710	  0.02493	  0.70061	709.48999	 21.20	
 10.208	104.249	  0.66375	  0.22458	  0.34021	  0.52202	  0.09153	  0.02336	  0.69872	709.53998	 21.20	
 10.192	113.678	  0.66164	  0.19354	  0.37360	  0.50666	  0.10009	  0.02099	  0.69601	709.59998	 21.20	
 10.203	123.092	  0.66599	  0.16643	  0.40951	  0.49065	  0.11518	  0.01872	  0.70153	709.53998	 21.20	
 10.215	132.646	  0.66305	  0.14216	  0.43904	  0.46432	  0.13262	  0.01880	  0.69767	709.56000	 21.20	
 10.190	142.105	  0.66672	  0.12288	  0.46794	  0.43801	  0.15632	  0.01636	  0.70226	709.65002	 21.20	
 10.194	151.526	  0.66473	  0.10610	  0.48830	  0.40506	  0.18078	  0.01424	  0.70088	709.56000	 21.20	
 10.210	161.034	  0.66836	  0.09446	  0.50729	  0.37285	  0.21088	  0.01166	  0.70207	709.64001	 21.20	
 10.191	170.497	  0.66338	  0.08859	  0.51238	  0.33414	  0.24206	  0.00983	  0.69750	709.62000	 21.20	
 11.899	171.783	  0.64751	  0.05000	  0.53815	  0.32138	  0.23251	 -0.00084	  0.69466	709.56000	 21.20	
 11.890	163.610	  0.64703	  0.05539	  0.52903	  0.35830	  0.19794	  0.00244	  0.69418	709.64001	 21.30	
 11.889	155.445	  0.64729	  0.06425	  0.51667	  0.39327	  0.16786	  0.00450	  0.69639	709.65002	 21.30	
 11.909	147.299	  0.65141	  0.07595	  0.50197	  0.42872	  0.14117	  0.00687	  0.70336	709.62000	 21.30	
 11.902	139.148	  0.64660	  0.09325	  0.47467	  0.45692	  0.11665	  0.01058	  0.69756	709.63000	 21.30	
 11.894	130.867	  0.64736	  0.11345	  0.44672	  0.48595	  0.09488	  0.01020	  0.69794	709.54999	 21.30	
 11.897	122.732	  0.64847	  0.13748	  0.41692	  0.50989	  0.07802	  0.00982	  0.69839	709.62000	 21.30	
 11.903	114.597	  0.64932	  0.16462	  0.38439	  0.53055	  0.06626	  0.01170	  0.69796	709.65997	 21.30	
 11.893	106.346	  0.64730	  0.19531	  0.34721	  0.54247	  0.05717	  0.01523	  0.69636	709.67999	 21.30	
 11.892	 98.155	  0.65120	  0.22862	  0.31251	  0.55442	  0.05083	  0.01590	  0.70024	709.58002	 21.30	
 11.900	 90.000	  0.64839	  0.26168	  0.27643	  0.55525	  0.04915	  0.01653	  0.69492	709.67999	 21.30	
 11.892	 81.845	  0.64891	  0.29642	  0.24111	  0.55162	  0.04988	  0.01769	  0.69508	709.66998	 21.30	
 11.893	 73.654	  0.65451	  0.33588	  0.20936	  0.54828	  0.05736	  0.01939	  0.70010	709.70001	 21.30	
 11.903	 65.403	  0.65660	  0.37306	  0.17854	  0.53517	  0.06685	  0.01985	  0.70215	709.58002	 21.30	
 11.897	 57.268	  0.65621	  0.40522	  0.15242	  0.51496	  0.08070	  0.02052	  0.69968	709.53998	 21.30	
 11.894	 49.133	  0.65539	  0.43704	  0.12664	  0.49070	  0.09745	  0.02139	  0.69756	709.53003	 21.40	
 11.902	 40.852	  0.65681	  0.46658	  0.10515	  0.46555	  0.11592	  0.02081	  0.69910	709.58002	 21.40	
 11.909	 32.701	  0.65933	  0.49269	  0.08818	  0.43348	  0.14371	  0.02113	  0.69991	709.53998	 21.40	
 11.889	 24.555	  0.65979	  0.51121	  0.07522	  0.40089	  0.16998	  0.01918	  0.69899	709.56000	 21.40	
 11.890	 16.390	  0.66170	  0.52843	  0.06304	  0.36881	  0.19764	  0.01690	  0.70108	709.70001	 21.40	
 11.899	  8.217	  0.66267	  0.53790	  0.05593	  0.33122	  0.23227	  0.01072	  0.70071	709.66998	 21.40	
 11.900	  0.000	  0.66043	  0.54026	  0.05504	  0.29430	  0.26782	  0.01241	  0.69877	709.50000	 21.40	
 11.899	 -8.217	  0.66062	  0.53764	  0.05696	  0.26079	  0.30311	  0.01044	  0.69802	709.47998	 21.40	
 11.890	-16.390	  0.66153	  0.53032	  0.06326	  0.22790	  0.34025	  0.00717	  0.69730	709.67999	 21.40	
 11.889	-24.555	  0.66155	  0.51553	  0.07270	  0.19714	  0.37401	  0.00402	  0.69751	709.46002	 21.40	
 11.909	-32.701	  0.66402	  0.49967	  0.08641	  0.17030	  0.40866	  0.00023	  0.70052	709.51001	 21.40	
 11.902	-40.852	  0.66023	  0.47334	  0.10282	  0.14552	  0.43825	 -0.00469	  0.69619	709.46002	 21.40	
 11.894	-49.133	  0.65896	  0.44390	  0.12450	  0.12345	  0.46557	 -0.00818	  0.69481	709.58002	 21.40	
 11.897	-57.268	  0.66131	  0.41564	  0.14880	  0.10643	  0.49202	 -0.01128	  0.69709	709.65997	 21.40	
 11.903	-65.403	  0.66179	  0.38246	  0.17673	  0.09273	  0.51059	 -0.01009	  0.69687	709.59998	 21.40	
 11.893	-73.654	  0.66073	  0.34713	  0.20586	  0.08343	  0.52506	 -0.01381	  0.69794	709.57001	 21.50	
 11.892	-81.845	  0.66141	  0.31070	  0.23857	  0.07576	  0.53382	 -0.01662	  0.69808	709.71997	 21.50	
 11.900	-90.000	  0.65915	  0.27630	  0.27315	  0.07532	  0.53636	 -0.01357	  0.69645	709.63000	 21.50	
 11.892	-98.155	  0.66131	  0.24187	  0.30923	  0.07569	  0.53508	 -0.01519	  0.69934	709.56000	 21.50	
 11.893	-106.346	  0.66389	  0.20957	  0.34658	  0.08165	  0.52880	 -0.01488	  0.70210	709.52002	 21.50	
 11.903	-114.597	  0.65904	  0.17746	  0.37965	  0.09112	  0.51183	 -0.01451	  0.69810	709.54999	 21.50	
 11.897	-122.732	  0.65896	  0.14982	  0.41318	  0.10343	  0.49372	 -0.01484	  0.69977	709.45001	 21.50	
 11.894	-130.867	  0.66000	  0.12400	  0.44537	  0.12008	  0.47176	 -0.01186	  0.70167	709.53003	 21.50	
 11.902	-139.148	  0.65864	  0.10177	  0.47449	  0.14178	  0.44220	 -0.01056	  0.70085	709.59003	 21.50	
 11.909	-147.299	  0.65169	  0.08380	  0.49433	  0.16447	  0.40757	 -0.00783	  0.69431	709.56000	 21.50	
 11.889	-155.445	  0.65169	  0.06893	  0.51332	  0.19090	  0.37357	 -0.00641	  0.69570	709.56000	 21.50	
 11.890	-163.610	  0.64840	  0.05919	  0.52674	  0.22001	  0.33918	 -0.00363	  0.69318	709.59003	 21.50	
 11.899	-171.783	  0.65259	  0.05214	  0.53968	  0.25538	  0.30256	 -0.00187	  0.69855	709.57001	 21.50	
 11.900	180.000	  0.65767	  0.05033	  0.54625	  0.29105	  0.26987	 -0.00141	  0.70359	709.56000	 21.50	
 13.600	180.000	  0.63352	  0.01147	  0.56666	  0.27503	  0.25590	 -0.00969	  0.69665	709.47998	 21.50	
 13.608	-172.853	  0.63673	  0.01438	  0.56641	  0.24283	  0.29263	 -0.01216	  0.69942	709.47998	 21.50	
 13.611	-165.583	  0.63384	  0.01949	  0.55458	  0.20779	  0.32695	 -0.01291	  0.69506	709.56000	 21.60	
 13.601	-158.353	  0.63556	  0.02904	  0.54352	  0.17870	  0.36389	 -0.01454	  0.69650	709.46002	 21.60	
 13.609	-151.210	  0.63512	  0.03995	  0.52470	  0.15080	  0.39657	 -0.01597	  0.69442	709.58002	 21.60	
 13.611	-143.999	  0.63560	  0.05572	  0.50290	  0.12590	  0.42912	 -0.01796	  0.69492	709.65997	 21.60	
 13.601	-136.825	  0.64157	  0.07486	  0.48062	  0.10291	  0.46359	 -0.02126	  0.70033	709.59003	 21.60	
 13.596	-129.640	  0.64213	  0.09750	  0.45228	  0.08493	  0.49018	 -0.02237	  0.69910	709.67999	 21.60	
