FileType=PCF
NHL=14
Date=05/29/19	15:37:26
Facility=APL
Serial=16071-12
Customer=NASA
NP=6
Mach=0.550000
Calibration=1:1
CalPts=490
TstPts=95
PortNumbering=AP Standard
Units=Torr C m/s kg/m^3 deg mm 
Theta[deg]	Phi[deg]	P1[Torr]	P2[Torr]	P3[Torr]	P4[Torr]	P5[Torr]	P6[Torr]	Pt[Torr]	Ps[Abs,Torr]	Ts[C]	
  0.000	  0.000	159.91708	 72.26029	 77.47411	 72.34945	 74.10032	  4.27922	159.78627	701.32001	 43.60	
  1.691	128.401	160.00406	 67.23355	 82.05061	 78.37799	 67.77097	  4.09318	159.91852	701.21002	 43.70	
  1.692	 77.194	160.11249	 73.88596	 75.81519	 80.17760	 66.22520	  4.26293	159.99333	701.21997	 43.80	
  1.699	 26.182	160.13870	 79.49584	 70.05327	 76.28895	 70.30975	  4.34912	160.00873	701.10999	 43.80	
  1.699	-26.182	160.07616	 79.57962	 69.83382	 68.80836	 77.38659	  4.22727	159.96225	701.21997	 43.90	
  1.692	-77.194	160.07938	 74.06125	 75.38483	 64.21696	 81.82796	  4.08414	159.96162	701.14001	 43.90	
  1.691	-128.401	160.09497	 67.33235	 81.86009	 65.47771	 80.40888	  3.96835	160.01898	701.20001	 44.10	
  1.700	180.000	160.08508	 64.19103	 84.87624	 72.11828	 74.06618	  3.94401	160.01025	701.13000	 44.10	
  3.400	180.000	159.75807	 56.28141	 92.28828	 71.07041	 73.61737	  3.34180	160.05365	701.20001	 44.10	
  3.388	-152.325	159.75685	 58.06832	 90.29293	 63.65945	 81.20529	  3.32744	160.05838	701.13000	 44.10	
  3.397	-124.529	159.83733	 62.96463	 85.03942	 58.46375	 86.95878	  3.41683	160.10817	701.06000	 44.10	
  3.399	-96.763	159.92221	 70.02351	 78.27921	 56.17434	 89.55424	  3.51468	160.10245	701.16998	 44.20	
  3.394	-69.283	160.06110	 77.81778	 70.51514	 57.22853	 88.50423	  3.66315	160.17198	701.15002	 44.20	
  3.400	-41.398	160.05414	 84.18449	 64.54673	 61.51838	 84.12318	  3.76993	160.12531	701.16998	 44.20	
  3.401	-14.021	160.16974	 87.74548	 61.47625	 68.39290	 77.11025	  3.94720	160.16681	701.17999	 44.20	
  3.401	 14.021	160.17390	 87.65746	 61.61180	 76.51307	 69.31234	  4.05520	160.15257	701.12000	 44.20	
  3.400	 41.398	160.16328	 84.07347	 64.98843	 82.78878	 62.65730	  4.12738	160.15350	701.06000	 44.20	
  3.394	 69.283	160.14601	 77.54115	 71.15592	 86.91128	 58.60480	  4.06340	160.16667	701.03998	 44.20	
  3.399	 96.763	160.10217	 69.66711	 79.04515	 87.61391	 57.94048	  3.90913	160.19997	701.08002	 44.20	
  3.397	124.529	160.08781	 62.82877	 85.65305	 84.59433	 60.69039	  3.71336	160.22440	701.06000	 44.20	
  3.388	152.325	160.00092	 58.03768	 90.62728	 79.01910	 66.33234	  3.47586	160.22369	701.13000	 44.20	
  5.099	161.165	159.16928	 49.35349	 98.41311	 78.27751	 65.27715	  2.72359	160.25407	701.19000	 44.20	
  5.109	142.013	159.26462	 52.79968	 94.65388	 85.00643	 58.42464	  2.93031	160.25899	701.13000	 44.30	
  5.095	123.033	159.40643	 58.26227	 88.79427	 90.67622	 53.35647	  3.04510	160.26779	701.15002	 44.30	
  5.105	104.191	159.51015	 64.93014	 82.07922	 94.18633	 50.33074	  3.23334	160.27312	701.17999	 44.30	
  5.093	 85.207	159.64207	 72.86737	 74.24620	 95.13536	 49.54369	  3.38979	160.29851	701.17999	 44.30	
  5.104	 66.290	159.70020	 80.94545	 66.40881	 93.40633	 51.06503	  3.55000	160.29985	701.23999	 44.40	
  5.094	 47.331	159.81978	 87.49711	 60.34842	 89.24963	 55.08316	  3.59732	160.35956	701.17999	 44.50	
  5.089	 28.397	159.85515	 92.45374	 55.85763	 83.13805	 60.90489	  3.56907	160.32573	701.19000	 44.60	
  5.096	  9.576	159.88319	 95.05711	 53.45547	 76.19698	 68.40039	  3.52611	160.33228	701.21002	 44.60	
  5.096	 -9.576	159.83507	 95.32070	 53.27053	 67.58195	 76.48327	  3.37212	160.33395	701.08002	 44.60	
  5.089	-28.397	159.79100	 92.69945	 55.46480	 60.25674	 84.13374	  3.28157	160.37666	701.15997	 44.60	
  5.094	-47.331	159.70547	 87.98261	 59.71304	 54.18735	 90.42496	  3.14509	160.40706	701.12000	 44.50	
  5.104	-66.290	159.61122	 81.15497	 65.81137	 49.92285	 95.02709	  3.05115	160.37921	701.14001	 44.60	
  5.093	-85.207	159.55389	 73.25143	 73.26505	 48.10807	 97.14040	  2.92957	160.43330	701.15002	 44.60	
  5.105	-104.191	159.44963	 65.55859	 81.33105	 48.67982	 96.51814	  2.76529	160.45564	701.27002	 44.60	
  5.095	-123.033	159.36382	 58.64563	 88.18279	 51.39879	 93.22270	  2.72733	160.46199	701.10999	 44.60	
  5.109	-142.013	159.27625	 53.18278	 94.20855	 55.98371	 87.88013	  2.62987	160.45576	701.14001	 44.60	
  5.099	-161.165	159.28300	 49.59360	 98.18089	 62.57517	 80.86810	  2.61201	160.45860	701.10999	 44.60	
  5.100	180.000	159.35130	 48.40121	 99.70303	 70.02136	 73.08674	  2.63158	160.49263	701.14001	 44.60	
  6.800	180.000	157.91650	 40.22128	106.64795	 68.68390	 72.05573	  2.06969	160.47758	701.09998	 44.60	
  6.796	-166.229	157.88985	 41.20634	105.46491	 61.31016	 79.70003	  2.07637	160.47894	701.15002	 44.60	
  6.808	-152.311	157.87997	 43.67856	102.47889	 54.52077	 86.97312	  2.02630	160.48434	701.10999	 44.70	
  6.795	-138.383	157.95537	 47.87996	 97.67594	 48.73277	 93.27183	  2.03546	160.49976	701.14001	 44.70	
  6.792	-124.591	158.03447	 53.00563	 91.86018	 44.42166	 98.46394	  2.11448	160.52377	701.03998	 44.80	
  6.787	-110.754	158.15868	 59.43264	 85.11552	 41.69343	102.22851	  2.20578	160.52151	701.09998	 44.80	
  6.800	-96.985	158.25465	 66.61738	 77.85053	 40.10149	104.18451	  2.24307	160.53024	701.12000	 44.80	
  6.800	-83.015	158.41595	 74.32009	 69.92237	 40.18333	104.16090	  2.40487	160.54134	701.09003	 44.90	
  6.787	-69.246	158.48753	 81.76383	 62.92822	 41.82640	102.16811	  2.53001	160.50980	701.20001	 44.90	
  6.792	-55.409	158.63672	 88.75490	 56.64051	 45.16784	 98.39970	  2.56619	160.54764	701.12000	 44.90	
  6.795	-41.617	158.77817	 94.61560	 51.47592	 50.00746	 92.97498	  2.64970	160.56529	701.06000	 44.80	
  6.808	-27.689	158.88017	 99.18761	 47.58881	 56.09928	 86.33058	  2.79663	160.55960	701.21002	 44.90	
  6.796	-13.771	159.00966	101.97901	 45.35615	 63.20204	 78.96574	  2.86283	160.57834	701.09998	 44.90	
  6.800	  0.000	159.12157	102.88383	 44.77974	 70.93108	 71.25717	  2.92389	160.60023	701.12000	 45.00	
  6.796	 13.771	159.08197	101.86148	 45.68659	 78.98471	 63.22847	  3.00160	160.57082	701.19000	 45.00	
  6.808	 27.689	159.09338	 98.88469	 48.38684	 85.79830	 56.37639	  3.03171	160.59389	701.15002	 45.10	
  6.795	 41.617	159.02240	 94.21671	 52.39625	 92.09371	 50.53229	  2.95536	160.59064	701.13000	 45.10	
  6.792	 55.409	158.94241	 88.32213	 57.70458	 97.16212	 46.09085	  2.94515	160.56316	701.09998	 45.10	
  6.787	 69.246	158.84875	 81.39808	 64.03791	100.70692	 42.92427	  2.84809	160.57443	701.09003	 45.10	
  6.800	 83.015	158.79070	 73.67473	 71.02269	102.43886	 41.43185	  2.76789	160.58737	701.12000	 45.10	
  6.800	 96.985	158.73181	 66.10464	 79.27980	102.16481	 41.72420	  2.68159	160.60786	701.06000	 45.00	
  6.787	110.754	158.62631	 58.88670	 86.19797	 99.96702	 43.62456	  2.57769	160.60661	701.21997	 45.00	
  6.792	124.591	158.53198	 52.59571	 92.97082	 95.92312	 46.81118	  2.47363	160.62321	701.16998	 45.10	
  6.795	138.383	158.43080	 47.42812	 98.68879	 90.49421	 51.60883	  2.44337	160.66196	701.16998	 45.10	
  6.808	152.311	158.25401	 43.40799	103.20062	 84.20137	 57.46219	  2.33074	160.62645	701.21002	 45.10	
  6.796	166.229	158.19937	 41.12876	105.89619	 76.83378	 64.50439	  2.15794	160.65712	701.16998	 45.10	
  8.491	168.704	156.31555	 32.78268	112.68459	 74.91235	 62.86896	  2.00513	160.67052	701.13000	 45.10	
  8.502	157.493	156.39453	 34.55193	110.50477	 83.07273	 55.74957	  2.23488	160.67511	701.21997	 45.10	
  8.494	146.194	156.59924	 38.04617	106.66949	 89.61679	 49.43201	  2.40409	160.67744	701.28998	 45.10	
  8.495	135.039	156.76805	 42.46471	101.66084	 96.05257	 43.98778	  2.29868	160.68340	701.21997	 45.10	
  8.487	123.723	156.88455	 47.68344	 95.48132	101.65060	 39.53911	  2.20311	160.70428	701.09998	 45.20	
  8.492	112.575	157.02753	 53.85204	 88.75671	105.64512	 36.31655	  2.21479	160.73042	701.10999	 45.20	
  8.510	101.220	157.14078	 60.93434	 81.65937	108.43208	 34.09095	  2.23424	160.70007	701.19000	 45.10	
  8.500	 90.000	157.34451	 68.70994	 73.62730	109.41617	 33.56359	  2.29706	160.76923	701.16998	 45.10	
  8.510	 78.780	157.44974	 76.46635	 66.25467	108.91572	 34.15369	  2.33183	160.80505	701.07001	 45.20	
  8.492	 67.425	157.51237	 84.12574	 59.19373	106.69054	 35.92899	  2.43538	160.81671	701.14001	 45.20	
  8.487	 56.277	157.59236	 90.86222	 53.00367	103.06172	 39.11182	  2.50761	160.78705	701.10999	 45.10	
  8.495	 44.961	157.68938	 97.22928	 47.58017	 97.78583	 43.44736	  2.59061	160.78368	701.21002	 45.10	
  8.494	 33.806	157.79465	102.44395	 43.20412	 91.74995	 48.67044	  2.67378	160.79424	701.10999	 45.10	
  8.502	 22.507	157.80449	106.42955	 39.71583	 85.02485	 54.96697	  2.72046	160.79839	701.15002	 45.10	
  8.491	 11.296	157.77496	109.04332	 37.53521	 77.89117	 61.92249	  2.72746	160.74542	701.09003	 45.10	
  8.500	  0.000	157.76984	110.12896	 36.52475	 69.51859	 69.92152	  2.69559	160.79980	701.16998	 45.10	
  8.491	-11.296	157.68776	109.26437	 37.12473	 61.86533	 77.81475	  2.66660	160.79909	701.16998	 45.10	
  8.502	-22.507	157.55814	106.65594	 38.96717	 54.75376	 85.27905	  2.65817	160.78580	701.17999	 45.10	
  8.494	-33.806	157.50195	102.84812	 42.16583	 48.17568	 92.46355	  2.61115	160.83220	701.12000	 45.20	
  8.495	-44.961	157.34700	 97.86329	 46.43454	 42.57500	 98.77733	  2.45818	160.85675	701.03998	 45.20	
  8.487	-56.277	157.21597	 91.37450	 51.78065	 38.44656	104.19974	  2.43993	160.80492	701.03003	 45.30	
  8.492	-67.425	157.09122	 84.49121	 57.86747	 35.28299	108.05579	  2.41311	160.81676	701.15002	 45.30	
  8.510	-78.780	156.95804	 77.04020	 64.86797	 33.17904	110.60369	  2.35165	160.83211	701.15997	 45.30	
  8.500	-90.000	156.77200	 69.29372	 72.07156	 32.43225	111.39946	  2.18720	160.79802	701.19000	 45.30	
  8.510	-101.220	156.67633	 61.78387	 80.17289	 32.89031	110.57993	  2.08024	160.82501	701.10999	 45.30	
  8.492	-112.575	156.52888	 54.36206	 87.43951	 34.91644	108.07522	  2.02262	160.79639	701.16998	 45.40	
  8.487	-123.723	156.45628	 48.15514	 94.21946	 37.93814	104.31741	  1.94964	160.81641	701.04999	 45.40	
  8.495	-135.039	156.35327	 42.61619	100.51469	 41.29442	 99.12397	  1.87575	160.84169	701.15997	 45.40	
  8.494	-146.194	156.31560	 38.18594	105.94317	 46.49798	 92.97550	  1.85623	160.83379	701.09003	 45.40	
  8.502	-157.493	156.22800	 34.82352	109.98679	 52.75982	 86.03918	  1.92945	160.86923	701.03003	 45.30	
  8.491	-168.704	156.29692	 32.87420	112.56242	 59.82198	 78.56084	  1.98881	160.89572	701.03998	 45.30	
  8.500	180.000	156.35930	 32.19280	113.54164	 67.35329	 70.70950	  1.94740	160.88510	701.09003	 45.30	
 10.200	180.000	153.93506	 23.78171	119.90743	 65.32337	 68.75722	  2.29792	160.86400	700.92999	 45.30	
 10.191	-170.497	153.83333	 24.28555	118.93938	 57.67936	 76.91380	  2.32538	160.88266	701.03003	 45.30	
 10.210	-161.034	153.69922	 25.85961	116.74821	 50.53563	 84.43098	  2.22654	160.87433	701.06000	 45.30	
 10.194	-151.526	153.66953	 28.64796	113.20302	 44.06158	 91.70604	  2.14948	160.85541	701.01001	 45.30	
 10.190	-142.105	153.74881	 32.30782	108.58854	 39.26974	 98.53763	  2.11482	160.86940	701.08002	 45.30	
 10.215	-132.646	153.92058	 37.23302	102.87445	 34.29308	104.56190	  2.16108	160.94168	701.13000	 45.30	
 10.203	-123.092	154.04065	 42.88593	 96.14793	 30.23880	109.61394	  2.25030	160.89983	701.04999	 45.30	
 10.192	-113.678	154.16956	 49.29683	 89.16273	 26.97932	113.79556	  2.38445	160.91154	701.13000	 45.30	
 10.208	-104.249	154.32533	 56.21717	 82.04247	 24.59477	116.71285	  2.45632	160.91473	700.97998	 45.20	
 10.210	-94.801	154.42453	 63.81421	 73.68604	 23.65213	118.15095	  2.48203	160.89673	701.03998	 45.30	
 10.210	-85.199	154.62558	 71.60583	 66.39247	 24.29086	118.19309	  2.56288	160.93791	701.08002	 45.20	
 10.208	-75.751	154.75154	 79.41405	 59.23057	 25.40012	116.70823	  2.61556	160.93207	701.04999	 45.20	
 10.192	-66.322	154.87514	 86.85139	 52.41594	 27.83734	113.66138	  2.66454	160.91692	701.13000	 45.20	
 10.203	-56.908	155.06572	 93.75496	 46.41956	 31.40369	109.58810	  2.68641	160.93547	701.09998	 45.20	
 10.215	-47.354	155.17857	100.42744	 41.22390	 35.71750	104.40678	  2.74849	160.93115	701.13000	 45.20	
 10.190	-37.895	155.41643	105.91013	 36.94593	 40.48706	 98.06202	  2.75788	160.95622	701.04999	 45.20	
 10.194	-28.474	155.53448	110.52150	 33.25621	 46.27253	 91.21525	  2.80895	160.93550	701.04999	 45.20	
 10.210	-18.966	155.65735	114.06626	 30.40673	 53.16164	 83.69473	  2.84376	160.95441	701.13000	 45.20	
 10.191	 -9.503	155.80086	115.92745	 29.11808	 60.47289	 76.10411	  2.85551	160.93535	701.10999	 45.30	
 10.200	  0.000	155.92580	116.51199	 28.83772	 68.07308	 68.22063	  2.82092	160.96301	701.10999	 45.30	
 10.191	  9.503	155.89999	115.76792	 29.48284	 76.30004	 60.18945	  2.85239	160.93396	701.06000	 45.40	
 10.210	 18.966	155.90541	113.71190	 31.25370	 84.08526	 52.85923	  2.81907	160.95509	701.15997	 45.40	
 10.194	 28.474	155.89882	110.25090	 34.28951	 90.93771	 46.27563	  2.74757	160.95966	701.26001	 45.40	
 10.190	 37.895	155.84769	105.36485	 38.15012	 97.51623	 40.63397	  2.67824	160.96112	701.17999	 45.50	
 10.215	 47.354	155.74228	 99.77312	 42.50064	103.71710	 35.68055	  2.58304	160.98874	701.10999	 45.50	
 10.203	 56.908	155.64688	 93.08358	 47.96474	108.62656	 31.74877	  2.48776	160.94382	701.16998	 45.50	
 10.192	 66.322	155.56097	 86.02793	 54.19970	112.38267	 28.79899	  2.38724	160.95102	701.15002	 45.60	
 10.208	 75.751	155.45689	 78.74133	 61.02394	114.93543	 26.69734	  2.29876	160.96381	701.13000	 45.60	
 10.210	 85.199	155.45114	 70.88198	 68.22327	116.09674	 25.73060	  2.27251	161.02361	701.07001	 45.70	
 10.210	 94.801	155.38716	 62.95445	 76.17737	115.88041	 25.58423	  2.28203	161.03381	701.20001	 45.70	
 10.208	104.249	155.19012	 55.42353	 84.10542	114.32976	 26.53247	  2.30754	161.01509	701.03998	 45.70	
 10.192	113.678	155.04277	 48.57624	 91.03847	111.23808	 28.82148	  2.23330	160.99709	701.08002	 45.70	
 10.203	123.092	154.93378	 42.51739	 97.91844	107.02835	 32.15242	  2.27305	161.00621	701.06000	 45.80	
 10.215	132.646	154.80087	 36.87515	104.41519	101.80016	 36.25138	  2.49251	160.99022	701.09998	 45.90	
 10.190	142.105	154.62839	 32.28126	109.86354	 95.32014	 41.30801	  2.69159	161.00060	701.04999	 45.90	
 10.194	151.526	154.48999	 28.55704	114.22385	 88.57547	 47.30473	  2.74105	160.99458	701.10999	 45.90	
 10.210	161.034	154.34630	 25.80068	117.45536	 81.31944	 53.90586	  2.55290	161.01842	701.08002	 45.90	
 10.191	170.497	154.25378	 24.42239	119.41792	 73.04885	 61.08162	  2.32024	160.99863	701.09003	 45.80	
 11.899	171.783	151.33176	 15.57791	125.81237	 70.66332	 59.00165	  2.83644	161.03004	701.01001	 45.80	
 11.890	163.610	151.45422	 16.79548	124.12896	 78.36581	 51.88195	  2.98300	161.03200	701.09003	 45.80	
 11.889	155.445	151.58955	 19.08274	121.15908	 86.70342	 45.12074	  3.29271	161.03310	701.10999	 45.80	
 11.909	147.299	151.71252	 22.19056	117.15995	 93.55369	 38.68848	  3.37409	161.03891	701.12000	 45.80	
 11.902	139.148	151.89288	 26.18013	112.39503	100.34023	 33.19010	  3.09581	161.06889	701.14001	 45.90	
 11.894	130.867	152.06981	 31.13660	106.49300	106.79559	 28.44200	  2.68308	161.06171	701.17999	 45.90	
 11.897	122.732	152.18983	 36.76359	 99.84050	111.93711	 24.47216	  2.52332	161.04243	701.07001	 45.90	
 11.903	114.597	152.31993	 42.91866	 92.82120	116.27037	 21.04466	  2.55388	161.05725	701.01001	 45.90	
 11.893	106.346	152.43378	 49.75014	 85.87512	119.41168	 18.73019	  2.66437	161.02730	701.01001	 45.90	
 11.892	 98.155	152.69374	 57.09115	 77.96119	121.92997	 17.39574	  2.66801	161.08984	701.03003	 45.90	
 11.900	 90.000	152.77669	 64.80814	 69.80355	122.78690	 17.09264	  2.64190	161.06941	701.00000	 45.90	
 11.892	 81.845	152.88406	 72.45173	 62.66812	122.44378	 17.93708	  2.57350	161.09918	701.08002	 45.80	
 11.893	 73.654	152.91295	 80.46893	 55.47005	120.65662	 19.04927	  2.59128	161.01990	700.92999	 45.80	
 11.903	 65.403	153.07419	 87.99149	 48.69989	117.63005	 21.13480	  2.65466	161.09714	700.92999	 45.80	
 11.897	 57.268	153.16243	 95.07668	 42.72663	113.76066	 24.24581	  2.78517	161.11752	700.95001	 45.90	
 11.894	 49.133	153.27180	101.78116	 37.65253	108.80508	 28.13561	  2.88744	161.10672	700.96997	 45.90	
 11.902	 40.852	153.40475	107.73930	 32.77359	102.91767	 32.86534	  3.01391	161.07021	700.95001	 45.90	
 11.909	 32.701	153.48013	113.24063	 28.32198	 96.34972	 38.11233	  3.03815	161.08250	700.96002	 46.00	
 11.889	 24.555	153.54913	117.07904	 24.96495	 89.43597	 44.28920	  3.05693	161.04619	700.87000	 46.10	
 11.890	 16.390	153.49525	120.27340	 22.23139	 82.25926	 50.83101	  3.06434	161.04596	700.92999	 46.10	
 11.899	  8.217	153.51846	122.25455	 20.84226	 74.07620	 58.16537	  3.13337	161.10400	701.02002	 46.20	
 11.900	  0.000	153.48846	122.92567	 20.50890	 66.37139	 65.93748	  3.23268	161.09804	700.90002	 46.20	
 11.899	 -8.217	153.40846	122.44253	 20.30086	 58.70086	 74.04339	  3.26416	161.08922	700.92999	 46.20	
 11.890	-16.390	153.26613	120.60262	 21.35080	 51.16464	 81.75282	  3.12669	161.01610	700.98999	 46.10	
 11.889	-24.555	153.15669	117.53667	 23.43082	 44.25643	 89.28699	  3.17761	161.02609	701.00000	 46.10	
 11.909	-32.701	152.97778	113.79988	 26.64763	 38.63810	 96.53764	  3.14613	161.06584	701.00000	 46.10	
 11.902	-40.852	152.79793	108.42123	 30.90574	 33.16940	103.28146	  3.19359	161.06511	700.81000	 46.10	
 11.894	-49.133	152.63747	102.55479	 35.92841	 27.74025	109.42674	  3.14050	161.08917	700.92999	 46.00	
 11.897	-57.268	152.52724	 95.90326	 41.42716	 23.20119	114.57766	  3.20887	161.05980	701.03003	 46.00	
 11.903	-65.403	152.27141	 88.65370	 46.88516	 19.22361	119.05044	  3.05206	161.05954	700.97998	 46.00	
 11.893	-73.654	152.10133	 81.14066	 53.57057	 16.53755	122.12355	  3.07793	161.11989	700.97998	 46.00	
 11.892	-81.845	152.03520	 73.07210	 60.90174	 15.15681	123.97614	  2.98042	161.10959	700.92999	 46.00	
 11.900	-90.000	151.74309	 65.56819	 67.66217	 13.93345	124.74434	  2.93425	161.17824	701.03003	 46.10	
 11.892	-98.155	151.64371	 57.91471	 75.07005	 14.33087	124.16772	  3.03542	161.10776	700.98999	 46.10	
 11.893	-106.346	151.53313	 50.69489	 83.59680	 15.77710	122.20778	  3.02363	161.11392	700.94000	 46.10	
 11.903	-114.597	151.29570	 43.64178	 90.71889	 17.94138	119.15626	  2.96786	161.05254	701.09998	 46.10	
 11.897	-122.732	151.31110	 37.40942	 97.86301	 21.26721	114.90800	  2.88336	161.14513	700.96997	 46.10	
 11.894	-130.867	151.17493	 31.50322	104.67387	 25.58730	109.60054	  2.70598	161.07333	701.00000	 46.20	
 11.902	-139.148	151.05313	 26.46208	110.83909	 30.73833	103.65476	  2.66435	161.07367	701.02002	 46.20	
 11.909	-147.299	151.04730	 22.21814	115.96878	 36.49614	 97.12154	  2.64429	161.14786	701.03003	 46.30	
 11.889	-155.445	151.01685	 19.10278	120.05000	 42.76653	 89.96309	  2.70011	161.15033	700.95001	 46.30	
 11.890	-163.610	151.10568	 16.73842	123.40898	 48.30938	 82.56673	  2.73936	161.10086	700.89001	 46.30	
 11.899	-171.783	151.07890	 14.96283	125.53172	 55.58169	 74.84823	  2.81439	161.13461	700.94000	 46.30	
 11.900	180.000	151.25676	 14.85645	126.33199	 63.19566	 66.52504	  2.84363	161.11285	700.90002	 46.40	
 13.600	180.000	147.70486	  6.03453	131.60368	 60.54027	 63.85064	  3.33258	161.12082	700.98999	 46.40	
 13.608	-172.853	147.56366	  5.98614	130.94568	 52.97099	 71.86185	  3.38203	161.14601	700.89001	 46.50	
 13.611	-165.583	147.56725	  7.44538	129.57668	 46.88200	 80.11377	  3.30845	161.12408	700.91998	 46.50	
 13.601	-158.353	147.58289	  9.68151	126.63187	 40.12025	 87.75184	  3.12132	161.15346	700.92999	 46.50	
 13.609	-151.210	147.54616	 12.51443	122.64284	 33.04826	 94.94433	  2.99987	161.17586	700.90002	 46.40	
 13.611	-143.999	147.55197	 16.07958	117.77429	 26.78895	101.89545	  3.10155	161.15686	700.88000	 46.40	
 13.601	-136.825	147.67966	 20.58054	112.34409	 21.49845	108.45495	  3.11887	161.08746	700.94000	 46.40	
 13.596	-129.640	147.78719	 25.56038	106.15812	 16.85777	114.39808	  3.26211	161.17117	701.02002	 46.40	
