FileType=PCF
NHL=14
Date=03/19/19	13:35:48
Facility=APL
Serial=16071-6
Customer=NASA
NP=6
Mach=0.230000
Calibration=1:1
CalPts=490
TstPts=95
PortNumbering=AP Standard
Units=Torr C m/s kg/m^3 deg mm 
Theta[deg]	Phi[deg]	P1[Torr]	P2[Torr]	P3[Torr]	P4[Torr]	P5[Torr]	P6[Torr]	Pt[Torr]	Ps[Abs,Torr]	Ts[C]	
  0.000	  0.000	 25.50832	 11.10444	 11.23672	 10.91318	 10.84785	  0.63309	 25.51939	714.69000	 32.30	
  1.691	128.401	 25.49764	 10.25617	 12.01778	 11.96092	  9.77173	  0.61920	 25.52668	714.71002	 32.30	
  1.692	 77.194	 25.50636	 11.38441	 10.86863	 12.21148	  9.54380	  0.65736	 25.53111	714.76001	 32.20	
  1.699	 26.182	 25.50199	 12.32527	  9.98403	 11.47214	 10.23027	  0.66997	 25.51161	714.64001	 32.20	
  1.699	-26.182	 25.49900	 12.29383	  9.99797	 10.29989	 11.39993	  0.64716	 25.50739	714.71002	 32.20	
  1.692	-77.194	 25.50022	 11.34029	 10.94274	  9.63688	 12.11349	  0.60467	 25.52142	714.65997	 32.20	
  1.691	-128.401	 25.48783	 10.21134	 12.08329	  9.88059	 11.83489	  0.57375	 25.52440	714.66998	 32.20	
  1.700	180.000	 25.47442	  9.70387	 12.58504	 10.90115	 10.79097	  0.58251	 25.50429	714.62000	 32.10	
  3.400	180.000	 25.40453	  8.29541	 13.92208	 10.82224	 10.65217	  0.47248	 25.51239	714.56000	 32.10	
  3.388	-152.325	 25.40368	  8.58016	 13.62029	  9.61503	 11.90159	  0.46693	 25.51286	714.53998	 32.10	
  3.397	-124.529	 25.40376	  9.38453	 12.71946	  8.64272	 12.92451	  0.47420	 25.49640	714.63000	 32.10	
  3.399	-96.763	 25.42843	 10.58218	 11.48838	  8.21592	 13.42909	  0.50254	 25.51066	714.54999	 32.10	
  3.394	-69.283	 25.44383	 11.88895	 10.20848	  8.38230	 13.29018	  0.53419	 25.50085	714.69000	 32.10	
  3.400	-41.398	 25.45062	 13.01693	  9.12628	  9.01572	 12.54574	  0.58239	 25.49516	714.66998	 32.00	
  3.401	-14.021	 25.46205	 13.67063	  8.52451	 10.09939	 11.40027	  0.62901	 25.50719	714.60999	 32.00	
  3.401	 14.021	 25.46119	 13.70214	  8.50226	 11.40556	 10.10612	  0.65129	 25.48906	714.53003	 32.00	
  3.400	 41.398	 25.46349	 13.08687	  9.06645	 12.58253	  8.99148	  0.65018	 25.48936	714.52002	 32.00	
  3.394	 69.283	 25.46127	 11.97210	 10.09568	 13.38624	  8.27308	  0.63151	 25.50290	714.63000	 32.00	
  3.399	 96.763	 25.43124	 10.66407	 11.33122	 13.57386	  8.09983	  0.59901	 25.49550	714.51001	 31.90	
  3.397	124.529	 25.41443	  9.46008	 12.58638	 13.10942	  8.49010	  0.54847	 25.48311	714.65002	 31.90	
  3.388	152.325	 25.40534	  8.61526	 13.54052	 12.09873	  9.39565	  0.50201	 25.49538	714.64001	 31.90	
  5.099	161.165	 25.25539	  7.07231	 14.90185	 12.03212	  9.12875	  0.35908	 25.49301	714.59003	 31.90	
  5.109	142.013	 25.25891	  7.69329	 14.16849	 13.24746	  8.00397	  0.33367	 25.47835	714.59003	 31.80	
  5.095	123.033	 25.29599	  8.64317	 13.08777	 14.21212	  7.20867	  0.43556	 25.50588	714.65002	 31.80	
  5.105	104.191	 25.31810	  9.83450	 11.80310	 14.77524	  6.76036	  0.47906	 25.49643	714.59003	 31.80	
  5.093	 85.207	 25.33482	 11.17781	 10.48817	 14.86783	  6.66676	  0.51725	 25.48234	714.60999	 31.80	
  5.104	 66.290	 25.35176	 12.51342	  9.24756	 14.48752	  6.99669	  0.52287	 25.48534	714.53998	 31.80	
  5.094	 47.331	 25.36511	 13.69374	  8.18268	 13.66673	  7.67945	  0.56414	 25.48409	714.51001	 31.70	
  5.089	 28.397	 25.36884	 14.56030	  7.44054	 12.50443	  8.70082	  0.57802	 25.49059	714.41998	 31.70	
  5.096	  9.576	 25.37010	 15.01086	  7.05371	 11.22305	  9.94673	  0.58444	 25.50102	714.53003	 31.70	
  5.096	 -9.576	 25.37651	 14.99230	  7.05442	  9.88127	 11.27666	  0.55307	 25.50321	714.60999	 31.70	
  5.089	-28.397	 25.36243	 14.49591	  7.49425	  8.68492	 12.54425	  0.50500	 25.49076	714.62000	 31.70	
  5.094	-47.331	 25.33930	 13.60073	  8.27188	  7.71157	 13.65011	  0.44197	 25.48193	714.62000	 31.70	
  5.104	-66.290	 25.33233	 12.39588	  9.35489	  7.01936	 14.42931	  0.41135	 25.50591	714.58002	 31.60	
  5.093	-85.207	 25.30737	 11.06093	 10.64293	  6.76712	 14.73920	  0.34947	 25.49363	714.56000	 31.60	
  5.105	-104.191	 25.27316	  9.70030	 12.00538	  6.82237	 14.59803	  0.33331	 25.48194	714.54999	 31.60	
  5.095	-123.033	 25.24355	  8.53551	 13.27367	  7.32880	 13.97258	  0.29901	 25.48580	714.62000	 31.60	
  5.109	-142.013	 25.22522	  7.58876	 14.32728	  8.21335	 12.94624	  0.31465	 25.46274	714.66998	 31.60	
  5.099	-161.165	 25.24748	  7.03191	 14.97204	  9.40381	 11.68214	  0.26658	 25.49342	714.60999	 31.50	
  5.100	180.000	 25.23377	  6.87299	 15.15183	 10.70484	 10.39336	  0.31261	 25.47269	714.59003	 31.50	
  6.800	180.000	 25.00875	  5.38604	 16.39639	 10.47364	 10.08741	  0.07353	 25.48794	714.65997	 31.50	
  6.796	-166.229	 24.99259	  5.50074	 16.25796	  9.19910	 11.33675	  0.11770	 25.47300	714.73999	 31.50	
  6.808	-152.311	 25.00326	  5.88921	 15.79905	  7.97497	 12.64113	  0.04488	 25.49672	714.65997	 31.50	
  6.795	-138.383	 25.00923	  6.57987	 15.00122	  6.92646	 13.83721	  0.04209	 25.48278	714.71002	 31.50	
  6.792	-124.591	 25.00868	  7.45973	 13.96064	  6.12179	 14.80924	  0.04093	 25.47039	714.59003	 31.50	
  6.787	-110.754	 25.03719	  8.53998	 12.76241	  5.58862	 15.50977	  0.12899	 25.48963	714.64001	 31.40	
  6.800	-96.985	 25.06689	  9.78134	 11.44597	  5.32851	 15.87825	  0.07574	 25.49852	714.73999	 31.40	
  6.800	-83.015	 25.08735	 11.10747	 10.10375	  5.32829	 15.93311	  0.10780	 25.49091	714.54999	 31.40	
  6.787	-69.246	 25.11266	 12.41554	  8.87348	  5.58629	 15.62095	  0.18771	 25.49105	714.64001	 31.40	
  6.792	-55.409	 25.14584	 13.67160	  7.74603	  6.07989	 15.01175	  0.22383	 25.48941	714.65997	 31.40	
  6.795	-41.617	 25.15026	 14.71430	  6.83829	  6.80992	 14.09114	  0.25096	 25.47501	714.71997	 31.40	
  6.808	-27.689	 25.17447	 15.57519	  6.13043	  7.81465	 12.93264	  0.28807	 25.48713	714.60999	 31.30	
  6.796	-13.771	 25.17695	 16.09159	  5.71826	  9.02714	 11.66793	  0.38934	 25.46223	714.62000	 31.30	
  6.800	  0.000	 25.17674	 16.27058	  5.60014	 10.28403	 10.40645	  0.37387	 25.47181	714.66998	 31.30	
  6.796	 13.771	 25.18442	 16.12002	  5.70364	 11.60008	  9.09446	  0.36832	 25.47602	714.69000	 31.30	
  6.808	 27.689	 25.18139	 15.67438	  6.03927	 12.91393	  7.90018	  0.44667	 25.48393	714.67999	 31.30	
  6.795	 41.617	 25.16655	 14.85182	  6.69510	 14.07642	  6.88932	  0.37474	 25.46828	714.51001	 31.20	
  6.792	 55.409	 25.17257	 13.82327	  7.58245	 15.03988	  6.10559	  0.39740	 25.48154	714.59003	 31.20	
  6.787	 69.246	 25.15780	 12.58674	  8.66749	 15.73044	  5.53100	  0.32167	 25.47074	714.66998	 31.20	
  6.800	 83.015	 25.13396	 11.27203	  9.87675	 16.11238	  5.21396	  0.28733	 25.47996	714.57001	 31.20	
  6.800	 96.985	 25.11713	  9.93752	 11.17198	 16.14736	  5.17618	  0.23098	 25.47287	714.58002	 31.20	
  6.787	110.754	 25.09509	  8.71725	 12.46297	 15.81831	  5.41332	  0.24747	 25.46892	714.60999	 31.20	
  6.792	124.591	 25.06776	  7.58260	 13.70629	 15.15709	  5.85955	  0.15757	 25.47303	714.63000	 31.10	
  6.795	138.383	 25.05797	  6.67657	 14.78464	 14.22844	  6.63049	  0.12224	 25.47638	714.59003	 31.10	
  6.808	152.311	 25.04514	  5.95772	 15.64475	 13.08892	  7.60528	  0.09920	 25.49056	714.59998	 31.10	
  6.796	166.229	 25.02947	  5.55745	 16.17546	 11.79116	  8.79238	  0.07318	 25.47730	714.69000	 31.10	
  8.491	168.704	 24.69045	  4.00402	 17.38726	 11.54574	  8.39153	 -0.16662	 25.47748	714.56000	 31.10	
  8.502	157.493	 24.69741	  4.30061	 16.93069	 12.86594	  7.16669	 -0.13643	 25.47198	714.56000	 31.10	
  8.494	146.194	 24.73173	  4.89111	 16.19952	 14.11921	  6.10373	 -0.11779	 25.47831	714.50000	 31.10	
  8.495	135.039	 24.73393	  5.66960	 15.23250	 15.22123	  5.18062	 -0.09236	 25.46985	714.50000	 31.10	
  8.487	123.723	 24.78137	  6.65322	 14.09816	 16.17718	  4.44420	 -0.07344	 25.47769	714.54999	 31.00	
  8.492	112.575	 24.80691	  7.75719	 12.85763	 16.85088	  3.99225	 -0.04276	 25.47690	714.53003	 31.00	
  8.510	101.220	 24.81735	  9.00990	 11.48615	 17.28403	  3.68645	 -0.04345	 25.47174	714.46997	 31.00	
  8.500	 90.000	 24.85483	 10.34159	 10.15016	 17.40819	  3.62170	 -0.02267	 25.49831	714.56000	 31.00	
  8.510	 78.780	 24.85704	 11.68197	  8.85911	 17.23724	  3.73973	  0.00502	 25.47422	714.56000	 31.00	
  8.492	 67.425	 24.88249	 13.03799	  7.63691	 16.76857	  4.13678	  0.03839	 25.48033	714.62000	 31.00	
  8.487	 56.277	 24.88764	 14.24808	  6.58613	 16.02835	  4.70483	  0.07987	 25.46701	714.52002	 31.00	
  8.495	 44.961	 24.89352	 15.36331	  5.64936	 15.07669	  5.47587	  0.09280	 25.47983	714.46002	 30.90	
  8.494	 33.806	 24.89542	 16.25392	  4.93430	 13.92757	  6.42249	  0.14031	 25.46973	714.53003	 30.90	
  8.502	 22.507	 24.90068	 16.94954	  4.41793	 12.66608	  7.49301	  0.18159	 25.48622	714.60999	 30.90	
  8.491	 11.296	 24.89875	 17.33978	  4.14051	 11.32143	  8.73357	  0.16396	 25.47276	714.48999	 30.90	
  8.500	  0.000	 24.89325	 17.46535	  4.04256	  9.95242	 10.06620	  0.13148	 25.46407	714.54999	 30.90	
  8.491	-11.296	 24.91398	 17.30912	  4.17464	  8.67060	 11.38547	  0.10989	 25.48345	714.53998	 30.90	
  8.502	-22.507	 24.89162	 16.83822	  4.52166	  7.41596	 12.69515	  0.06836	 25.47700	714.56000	 30.90	
  8.494	-33.806	 24.87226	 16.11341	  5.09687	  6.28779	 13.93963	  0.01757	 25.46681	714.48999	 30.90	
  8.495	-44.961	 24.85510	 15.17317	  5.85742	  5.37505	 15.02777	 -0.02629	 25.46928	714.53003	 30.80	
  8.487	-56.277	 24.83612	 14.03551	  6.82725	  4.68404	 15.93819	 -0.05983	 25.47461	714.50000	 30.80	
  8.492	-67.425	 24.80533	 12.76149	  7.92644	  4.21135	 16.60550	 -0.10905	 25.47076	714.53998	 30.80	
  8.510	-78.780	 24.77684	 11.40082	  9.19058	  3.83807	 17.02950	 -0.14400	 25.47763	714.53003	 30.80	
  8.500	-90.000	 24.75678	 10.06186	 10.49922	  3.76581	 17.12570	 -0.17579	 25.48111	714.47998	 30.80	
  8.510	-101.220	 24.71629	  8.76376	 11.84598	  3.86895	 16.92822	 -0.19729	 25.47030	714.57001	 30.80	
  8.492	-112.575	 24.71184	  7.54876	 13.20432	  4.19687	 16.46671	 -0.21019	 25.48961	714.67999	 30.80	
  8.487	-123.723	 24.67375	  6.47202	 14.41262	  4.73552	 15.70170	 -0.20940	 25.45745	714.63000	 30.80	
  8.495	-135.039	 24.67338	  5.54242	 15.52916	  5.50364	 14.72229	 -0.20812	 25.47146	714.57001	 30.70	
  8.494	-146.194	 24.65337	  4.80516	 16.40623	  6.43854	 13.59823	 -0.20546	 25.47254	714.60999	 30.70	
  8.502	-157.493	 24.67202	  4.24524	 17.08681	  7.59223	 12.30745	 -0.19614	 25.47955	714.51001	 30.70	
  8.491	-168.704	 24.68482	  3.91769	 17.48141	  8.87279	 10.95905	 -0.19950	 25.47915	714.53003	 30.70	
  8.500	180.000	 24.68280	  3.81617	 17.58589	 10.18380	  9.62022	 -0.20068	 25.47140	714.59998	 30.70	
 10.200	180.000	 24.26472	  2.30956	 18.69817	  9.83895	  9.21560	 -0.43823	 25.47737	714.59003	 30.70	
 10.191	-170.497	 24.26180	  2.39677	 18.61132	  8.52301	 10.56047	 -0.43057	 25.47878	714.59003	 30.70	
 10.210	-161.034	 24.25674	  2.62480	 18.30399	  7.18895	 11.93084	 -0.42555	 25.49298	714.53998	 30.70	
 10.194	-151.526	 24.24195	  3.06548	 17.71212	  5.97531	 13.26346	 -0.43168	 25.48135	714.63000	 30.70	
 10.190	-142.105	 24.24775	  3.67962	 16.94300	  4.93337	 14.49055	 -0.45073	 25.48681	714.44000	 30.70	
 10.215	-132.646	 24.24463	  4.50505	 15.95649	  4.04998	 15.61523	 -0.46277	 25.46938	714.51001	 30.70	
 10.203	-123.092	 24.26075	  5.44424	 14.80459	  3.30555	 16.57800	 -0.46128	 25.48299	714.47998	 30.60	
 10.192	-113.678	 24.27451	  6.52544	 13.55445	  2.80482	 17.33718	 -0.45336	 25.46684	714.40997	 30.60	
 10.208	-104.249	 24.30704	  7.71560	 12.21725	  2.40767	 17.91121	 -0.45606	 25.47859	714.60999	 30.60	
 10.210	-94.801	 24.33977	  8.99319	 10.84931	  2.23885	 18.20335	 -0.45199	 25.48546	714.42999	 30.60	
 10.210	-85.199	 24.34953	 10.34276	  9.46627	  2.25669	 18.24871	 -0.42901	 25.46477	714.46997	 30.60	
 10.208	-75.751	 24.37518	 11.68900	  8.16813	  2.42294	 18.03577	 -0.39420	 25.45940	714.23999	 30.60	
 10.192	-66.322	 24.41163	 13.04621	  6.94474	  2.72628	 17.57967	 -0.36410	 25.46679	714.40997	 30.60	
 10.203	-56.908	 24.45123	 14.34890	  5.85203	  3.22393	 16.90676	 -0.34409	 25.48132	714.41998	 30.50	
 10.215	-47.354	 24.48182	 15.55571	  4.81996	  3.89797	 16.00940	 -0.32950	 25.49468	714.46997	 30.50	
 10.190	-37.895	 24.48107	 16.57951	  3.97828	  4.73622	 14.90022	 -0.28611	 25.47649	714.35999	 30.50	
 10.194	-28.474	 24.51017	 17.43219	  3.31807	  5.74950	 13.69513	 -0.21360	 25.47790	714.46997	 30.50	
 10.210	-18.966	 24.53083	 18.07572	  2.81071	  6.95514	 12.37765	 -0.15313	 25.48625	714.48999	 30.50	
 10.191	 -9.503	 24.53372	 18.44661	  2.56512	  8.25910	 11.01914	 -0.12847	 25.47786	714.53998	 30.50	
 10.200	  0.000	 24.53835	 18.59765	  2.43933	  9.55904	  9.68806	 -0.09705	 25.46875	714.34998	 30.50	
 10.191	  9.503	 24.52349	 18.48289	  2.55543	 10.96852	  8.33548	 -0.07091	 25.46932	714.34003	 30.50	
 10.210	 18.966	 24.51980	 18.15227	  2.78557	 12.31989	  7.06026	 -0.04326	 25.47596	714.39001	 30.50	
 10.194	 28.474	 24.51375	 17.54477	  3.21721	 13.62963	  5.90644	 -0.06151	 25.46299	714.44000	 30.50	
 10.190	 37.895	 24.51865	 16.75630	  3.82571	 14.90314	  4.86299	 -0.12906	 25.47411	714.46002	 30.40	
 10.215	 47.354	 24.51878	 15.76690	  4.60241	 16.04438	  3.95054	 -0.19486	 25.47787	714.46002	 30.40	
 10.203	 56.908	 24.51786	 14.61786	  5.54625	 16.99134	  3.22978	 -0.22536	 25.48615	714.46997	 30.40	
 10.192	 66.322	 24.51033	 13.37852	  6.60981	 17.71093	  2.71017	 -0.23483	 25.48172	714.47998	 30.40	
 10.208	 75.751	 24.49299	 12.04572	  7.80390	 18.22391	  2.29786	 -0.25008	 25.47355	714.39001	 30.40	
 10.210	 85.199	 24.46178	 10.66424	  9.06121	 18.49573	  2.06903	 -0.28709	 25.46126	714.42999	 30.40	
 10.210	 94.801	 24.46713	  9.30355	 10.42465	 18.53125	  2.06330	 -0.30599	 25.48812	714.38000	 30.40	
 10.208	104.249	 24.43298	  7.98410	 11.77123	 18.30007	  2.19653	 -0.30803	 25.47939	714.37000	 30.40	
 10.192	113.678	 24.39883	  6.74534	 13.12595	 17.82119	  2.51131	 -0.31756	 25.46626	714.38000	 30.40	
 10.203	123.092	 24.36706	  5.63367	 14.38885	 17.14508	  2.95631	 -0.34220	 25.45552	714.41998	 30.30	
 10.215	132.646	 24.35629	  4.62126	 15.60062	 16.23337	  3.63825	 -0.36280	 25.47697	714.44000	 30.30	
 10.190	142.105	 24.32977	  3.82766	 16.63053	 15.12508	  4.53781	 -0.37121	 25.46980	714.37000	 30.30	
 10.194	151.526	 24.31865	  3.19282	 17.48246	 13.90415	  5.54924	 -0.36867	 25.48382	714.41998	 30.30	
 10.210	161.034	 24.28149	  2.73690	 18.12028	 12.59270	  6.66818	 -0.38059	 25.47333	714.39001	 30.30	
 10.191	170.497	 24.27583	  2.43845	 18.51389	 11.24286	  7.85945	 -0.41570	 25.47606	714.39001	 30.30	
 11.899	171.783	 23.76266	  0.95911	 19.55957	 10.85509	  7.36331	 -0.62457	 25.46331	714.40997	 30.30	
 11.890	163.610	 23.78752	  1.22400	 19.20461	 12.21692	  6.11345	 -0.60493	 25.46900	714.41998	 30.30	
 11.889	155.445	 23.79016	  1.55373	 18.63609	 13.52448	  4.97363	 -0.59598	 25.44866	714.40002	 30.30	
 11.909	147.299	 23.80279	  2.07323	 17.88772	 14.82618	  3.89378	 -0.61542	 25.45166	714.47998	 30.20	
 11.902	139.148	 23.83828	  2.77601	 16.95707	 16.03311	  2.99956	 -0.61541	 25.46408	714.40002	 30.20	
 11.894	130.867	 23.87585	  3.64116	 15.85894	 17.10117	  2.22958	 -0.60521	 25.47464	714.44000	 30.20	
 11.897	122.732	 23.89430	  4.62617	 14.65043	 17.97982	  1.60906	 -0.56661	 25.46330	714.48999	 30.20	
 11.903	114.597	 23.91775	  5.71394	 13.36533	 18.69026	  1.13056	 -0.55644	 25.46799	714.42999	 30.20	
 11.893	106.346	 23.94448	  6.92618	 12.00407	 19.21592	  0.80433	 -0.55971	 25.47259	714.39001	 30.20	
 11.892	 98.155	 23.96632	  8.24453	 10.63235	 19.50165	  0.66500	 -0.55810	 25.45472	714.27002	 30.20	
 11.900	 90.000	 23.99553	  9.60386	  9.30114	 19.60555	  0.63737	 -0.54739	 25.46675	714.35999	 30.20	
 11.892	 81.845	 24.00660	 10.95998	  7.99528	 19.46411	  0.70959	 -0.52877	 25.46173	714.37000	 30.20	
 11.893	 73.654	 24.01705	 12.33753	  6.71713	 19.11945	  0.90726	 -0.50080	 25.47368	714.37000	 30.20	
 11.903	 65.403	 24.02778	 13.68935	  5.53393	 18.55835	  1.32054	 -0.49054	 25.46688	714.29999	 30.10	
 11.897	 57.268	 24.02306	 14.92622	  4.49059	 17.80110	  1.85251	 -0.46916	 25.45784	714.28003	 30.10	
 11.894	 49.133	 24.03699	 16.09298	  3.55233	 16.88401	  2.53006	 -0.45052	 25.45998	714.38000	 30.10	
 11.902	 40.852	 24.02187	 17.14273	  2.71752	 15.77341	  3.35022	 -0.39171	 25.44733	714.32001	 30.10	
 11.909	 32.701	 24.01489	 18.02051	  2.04896	 14.54432	  4.31024	 -0.31275	 25.44407	714.42999	 30.10	
 11.889	 24.555	 24.03471	 18.71284	  1.57310	 13.22142	  5.44739	 -0.27343	 25.46239	714.37000	 30.10	
 11.890	 16.390	 24.04169	 19.23108	  1.22589	 11.89655	  6.61914	 -0.28911	 25.45716	714.38000	 30.10	
 11.899	  8.217	 24.04517	 19.53601	  1.01370	 10.51423	  7.90492	 -0.31705	 25.45373	714.31000	 30.10	
 11.900	  0.000	 24.03719	 19.61499	  0.96355	  9.10739	  9.30165	 -0.35026	 25.44949	714.33002	 30.10	
 11.899	 -8.217	 24.03650	 19.48334	  1.06725	  7.79519	 10.65811	 -0.36051	 25.44513	714.39001	 30.10	
 11.890	-16.390	 24.04050	 19.13857	  1.30793	  6.48311	 12.04438	 -0.37846	 25.45622	714.33002	 30.10	
 11.889	-24.555	 24.01329	 18.58187	  1.68814	  5.27961	 13.38348	 -0.43473	 25.43954	714.33002	 30.10	
 11.909	-32.701	 24.01307	 17.84823	  2.22786	  4.21508	 14.65926	 -0.48227	 25.45561	714.34003	 30.10	
 11.902	-40.852	 23.98164	 16.92761	  2.92971	  3.23328	 15.79288	 -0.52341	 25.44812	714.34003	 30.00	
 11.894	-49.133	 23.95751	 15.80451	  3.84478	  2.40977	 16.86636	 -0.56037	 25.45652	714.28998	 30.00	
 11.897	-57.268	 23.93136	 14.58483	  4.84689	  1.75465	 17.76154	 -0.55853	 25.44746	714.28003	 30.00	
 11.903	-65.403	 23.89895	 13.29610	  5.91962	  1.24272	 18.45384	 -0.55878	 25.44662	714.32001	 30.00	
 11.893	-73.654	 23.88527	 11.94121	  7.15907	  0.94413	 18.93189	 -0.57451	 25.44407	714.23999	 30.00	
 11.892	-81.845	 23.84942	 10.56663	  8.45428	  0.81842	 19.20842	 -0.60135	 25.43931	714.31000	 30.00	
 11.900	-90.000	 23.83531	  9.21905	  9.79288	  0.76409	 19.26329	 -0.60714	 25.45693	714.16998	 30.00	
 11.892	-98.155	 23.79268	  7.89973	 11.14513	  0.78463	 19.09988	 -0.60186	 25.44362	714.28003	 30.00	
 11.893	-106.346	 23.75521	  6.63021	 12.51420	  1.00224	 18.73219	 -0.59608	 25.44617	714.27002	 30.00	
 11.903	-114.597	 23.72497	  5.45838	 13.85747	  1.37433	 18.13121	 -0.59440	 25.44774	714.27002	 30.00	
 11.897	-122.732	 23.70601	  4.41288	 15.11291	  1.91948	 17.36756	 -0.60311	 25.44592	714.32001	 30.00	
 11.894	-130.867	 23.68228	  3.47970	 16.26264	  2.58444	 16.41226	 -0.61551	 25.43405	714.34003	 29.90	
 11.902	-139.148	 23.67750	  2.65294	 17.32215	  3.42586	 15.29695	 -0.61709	 25.44223	714.31000	 29.90	
 11.909	-147.299	 23.67894	  1.99581	 18.18314	  4.42641	 14.08032	 -0.60643	 25.44247	714.27002	 29.90	
 11.889	-155.445	 23.68350	  1.49910	 18.85666	  5.52156	 12.80449	 -0.59841	 25.44142	714.27002	 29.90	
 11.890	-163.610	 23.69244	  1.13970	 19.34370	  6.77671	 11.44326	 -0.61478	 25.42903	714.32001	 29.90	
 11.899	-171.783	 23.69628	  0.92462	 19.63158	  8.09383	 10.05820	 -0.62629	 25.42562	714.42999	 29.90	
 11.900	180.000	 23.71333	  0.86988	 19.70189	  9.43360	  8.72117	 -0.63754	 25.43681	714.48999	 29.90	
 13.600	180.000	 23.12909	 -0.54785	 20.66194	  8.97710	  8.19712	 -0.80637	 25.43905	714.35999	 29.90	
 13.608	-172.853	 23.09550	 -0.52744	 20.60546	  7.64039	  9.50948	 -0.80067	 25.43369	714.34003	 29.90	
 13.611	-165.583	 23.07678	 -0.34462	 20.35189	  6.29070	 10.90810	 -0.77335	 25.41603	714.28998	 29.90	
 13.601	-158.353	 23.07663	 -0.03140	 19.92063	  5.05395	 12.27549	 -0.74339	 25.42674	714.41998	 29.90	
 13.609	-151.210	 23.05310	  0.35409	 19.31987	  3.95435	 13.58842	 -0.73061	 25.41796	714.44000	 29.90	
 13.611	-143.999	 23.05165	  0.95543	 18.53876	  2.88305	 14.91027	 -0.72417	 25.42187	714.34003	 29.80	
 13.601	-136.825	 23.05252	  1.59967	 17.61018	  1.93075	 16.08977	 -0.72244	 25.43269	714.28998	 29.80	
 13.596	-129.640	 23.07455	  2.43204	 16.54573	  1.16429	 17.15295	 -0.71394	 25.42311	714.40997	 29.80	
