FileType=PCF
NHL=14
Date=03/19/19	12:40:35
Facility=APL
Serial=16071-6
Customer=NASA
NP=6
Mach=0.450000
Calibration=1:1
CalPts=490
TstPts=95
PortNumbering=AP Standard
Units=Torr C m/s kg/m^3 deg mm 
Theta[deg]	Phi[deg]	P1[Torr]	P2[Torr]	P3[Torr]	P4[Torr]	P5[Torr]	P6[Torr]	Pt[Torr]	Ps[Abs,Torr]	Ts[C]	
  0.000	  0.000	 91.97093	 41.50362	 41.77175	 41.13025	 40.58539	  2.18350	 91.96689	714.34003	 29.80	
  1.691	128.401	 91.93080	 38.50705	 44.60089	 44.90441	 36.72442	  2.12505	 91.97298	714.28998	 30.00	
  1.692	 77.194	 92.01654	 42.53085	 40.56940	 45.82919	 35.97131	  2.25756	 92.01106	714.33002	 30.20	
  1.699	 26.182	 92.04372	 45.76373	 37.38630	 43.12942	 38.49665	  2.29016	 92.01397	714.28003	 30.30	
  1.699	-26.182	 92.04182	 45.70197	 37.44993	 38.94886	 42.61693	  2.18893	 92.01971	714.32001	 30.50	
  1.692	-77.194	 92.00173	 42.40760	 40.69651	 36.58739	 45.08334	  2.02971	 91.99874	714.21997	 30.60	
  1.691	-128.401	 91.95561	 38.38738	 44.75292	 37.52588	 44.04123	  1.93433	 91.98646	714.34998	 30.80	
  1.700	180.000	 91.96909	 36.64753	 46.60682	 41.10863	 40.37604	  1.98395	 92.02277	714.28998	 30.90	
  3.400	180.000	 91.75745	 31.05322	 51.32925	 40.80977	 39.89585	  1.62962	 92.05877	714.34998	 31.00	
  3.388	-152.325	 91.79000	 32.09344	 50.27197	 36.59794	 44.26457	  1.57716	 92.07182	714.35999	 31.20	
  3.397	-124.529	 91.84604	 35.07946	 47.13654	 33.24509	 48.06762	  1.57011	 92.08430	714.42999	 31.30	
  3.399	-96.763	 91.92521	 39.79734	 42.65204	 31.67923	 49.95496	  1.60422	 92.07614	714.40002	 31.50	
  3.394	-69.283	 92.02144	 44.42131	 38.12497	 32.11978	 49.46775	  1.72910	 92.12325	714.23999	 31.60	
  3.400	-41.398	 92.02548	 48.07492	 34.26521	 34.47956	 46.63795	  1.88935	 92.07066	714.40997	 31.80	
  3.401	-14.021	 92.08900	 50.52491	 32.15244	 38.40063	 42.56110	  2.04121	 92.11403	714.38000	 31.90	
  3.401	 14.021	 92.03728	 50.63696	 32.03414	 43.02199	 37.96412	  2.15842	 92.09588	714.42999	 32.00	
  3.400	 41.398	 92.04906	 48.43376	 34.02008	 47.24998	 33.97968	  2.15286	 92.11903	714.42999	 32.10	
  3.394	 69.283	 92.04091	 44.72100	 37.77692	 50.28029	 31.42731	  2.11964	 92.14732	714.40997	 32.30	
  3.399	 96.763	 91.99880	 40.13256	 42.36107	 50.91692	 30.86830	  2.03500	 92.15467	714.41998	 32.40	
  3.397	124.529	 91.92963	 35.75639	 46.85661	 49.18034	 32.33315	  1.88817	 92.13498	714.33002	 32.50	
  3.388	152.325	 91.91629	 32.26158	 50.12810	 45.41033	 35.68542	  1.73304	 92.18633	714.40997	 32.60	
  5.099	161.165	 91.35757	 26.70366	 54.85333	 45.08381	 34.77058	  1.25225	 92.13575	714.42999	 32.70	
  5.109	142.013	 91.44616	 28.89648	 52.68666	 49.58838	 30.64644	  1.37195	 92.15520	714.35999	 32.90	
  5.095	123.033	 91.48401	 32.38369	 48.95074	 52.82369	 27.66796	  1.51194	 92.13237	714.39001	 33.00	
  5.105	104.191	 91.53931	 36.74710	 44.45055	 54.83947	 25.94942	  1.67285	 92.09339	714.41998	 33.10	
  5.093	 85.207	 91.64722	 41.84594	 39.70473	 55.20787	 25.60185	  1.80069	 92.13239	714.40002	 33.20	
  5.104	 66.290	 91.73393	 46.56491	 35.20663	 53.92147	 26.56946	  1.86655	 92.16331	714.42999	 33.30	
  5.094	 47.331	 91.78450	 50.59988	 30.94032	 51.23514	 29.23107	  1.89350	 92.18307	714.34003	 33.40	
  5.089	 28.397	 91.80730	 53.72383	 28.25113	 47.23177	 32.98669	  1.91804	 92.20902	714.46002	 33.50	
  5.096	  9.576	 91.86480	 55.40087	 26.85513	 42.57742	 37.46490	  1.85462	 92.24065	714.44000	 33.60	
  5.096	 -9.576	 91.88168	 55.37216	 26.88548	 37.87048	 42.23539	  1.78041	 92.23471	714.40997	 33.70	
  5.089	-28.397	 91.90272	 53.70346	 28.38846	 33.42267	 46.81860	  1.64855	 92.26968	714.51001	 33.80	
  5.094	-47.331	 91.79002	 50.25206	 31.20384	 29.52233	 50.73638	  1.45436	 92.20915	714.32001	 33.90	
  5.104	-66.290	 91.81483	 46.02192	 35.20401	 27.04123	 53.39121	  1.30249	 92.32609	714.46002	 34.00	
  5.093	-85.207	 91.68251	 41.67923	 39.83934	 26.05396	 54.44489	  1.14534	 92.27157	714.41998	 34.10	
  5.105	-104.191	 91.59407	 36.96745	 44.66075	 26.42712	 53.96681	  1.07622	 92.26624	714.35999	 34.10	
  5.095	-123.033	 91.59553	 32.71659	 49.30098	 28.42607	 51.78353	  1.06554	 92.33869	714.26001	 34.20	
  5.109	-142.013	 91.55119	 28.80651	 53.11883	 31.89277	 48.28070	  1.04985	 92.30443	714.31000	 34.30	
  5.099	-161.165	 91.57117	 26.66804	 55.43679	 36.00348	 43.82219	  1.09957	 92.36385	714.32001	 34.40	
  5.100	180.000	 91.52600	 26.05885	 56.08344	 40.50602	 39.32290	  1.16276	 92.31197	714.26001	 34.50	
  6.800	180.000	 90.78584	 21.11991	 60.41003	 39.83179	 38.39149	  0.52684	 92.38368	714.46002	 34.60	
  6.796	-166.229	 90.73817	 21.44268	 59.89123	 35.35575	 42.87959	  0.47793	 92.33178	714.41998	 34.60	
  6.808	-152.311	 90.78316	 22.92835	 58.28733	 30.94861	 47.44121	  0.43311	 92.36728	714.32001	 34.70	
  6.795	-138.383	 90.83275	 25.33176	 55.57695	 27.17587	 51.57956	  0.38825	 92.41230	714.29999	 34.80	
  6.792	-124.591	 90.86138	 28.57715	 51.96563	 24.27900	 54.90567	  0.34082	 92.40192	714.35999	 34.90	
  6.787	-110.754	 90.94981	 32.51902	 47.74649	 22.35736	 57.29953	  0.39131	 92.42449	714.31000	 35.00	
  6.800	-96.985	 91.11719	 36.96951	 43.18364	 21.23664	 58.79904	  0.42299	 92.49541	714.29999	 35.00	
  6.800	-83.015	 91.22173	 42.17619	 38.49099	 21.09796	 59.02624	  0.49850	 92.54076	714.25000	 35.10	
  6.787	-69.246	 91.24165	 46.32250	 33.94770	 22.01797	 57.85255	  0.64731	 92.46537	714.33002	 35.20	
  6.792	-55.409	 91.38180	 50.68828	 29.92820	 23.84032	 55.73619	  0.77598	 92.52183	714.31000	 35.30	
  6.795	-41.617	 91.46199	 54.74736	 26.52505	 26.75818	 52.49551	  0.93152	 92.50584	714.33002	 35.30	
  6.808	-27.689	 91.58089	 57.70440	 23.95122	 30.55608	 48.50613	  1.13823	 92.55516	714.21002	 35.40	
  6.796	-13.771	 91.55061	 59.48326	 22.35788	 34.84753	 43.86065	  1.29035	 92.51904	714.27002	 35.50	
  6.800	  0.000	 91.54167	 60.10311	 21.54645	 39.52301	 39.25718	  1.40626	 92.51852	714.38000	 35.60	
  6.796	 13.771	 91.53722	 59.60463	 21.99227	 44.24187	 34.66423	  1.48491	 92.54167	714.27002	 35.70	
  6.808	 27.689	 91.52528	 57.90806	 23.42511	 48.76651	 30.37396	  1.50598	 92.56889	714.32001	 35.70	
  6.795	 41.617	 91.51130	 55.06065	 25.82452	 52.76878	 26.61160	  1.50063	 92.53958	714.32001	 35.80	
  6.792	 55.409	 91.41951	 51.23199	 29.32640	 56.07857	 23.36271	  1.46000	 92.47759	714.25000	 35.80	
  6.787	 69.246	 91.43171	 47.22828	 33.13824	 58.61168	 21.37207	  1.42484	 92.52909	714.29999	 35.90	
  6.800	 83.015	 91.36874	 42.68320	 37.70431	 60.01316	 20.36921	  1.35462	 92.51856	714.35999	 36.00	
  6.800	 96.985	 91.28143	 37.91608	 42.38783	 60.04686	 20.33156	  1.27122	 92.49180	714.25000	 36.00	
  6.787	110.754	 91.20618	 33.00468	 47.03200	 58.82157	 21.42783	  1.20233	 92.49314	714.39001	 36.10	
  6.792	124.591	 91.16343	 28.89101	 51.37052	 56.42868	 23.36359	  1.05752	 92.51225	714.38000	 36.10	
  6.795	138.383	 91.11625	 25.81074	 55.05147	 53.23646	 26.02936	  0.87606	 92.51450	714.27002	 36.20	
  6.808	152.311	 91.06995	 23.38766	 58.05806	 49.26792	 29.60350	  0.82081	 92.56811	714.37000	 36.20	
  6.796	166.229	 90.97683	 21.80226	 59.87648	 44.65179	 33.90710	  0.68253	 92.52972	714.34998	 36.30	
  8.491	168.704	 89.92690	 16.30793	 63.99201	 43.85883	 32.66643	 -0.04992	 92.55975	714.32001	 36.30	
  8.502	157.493	 89.94321	 17.60988	 62.47375	 48.51985	 28.23644	  0.09386	 92.55914	714.39001	 36.40	
  8.494	146.194	 90.03223	 19.85742	 59.96807	 52.80452	 24.47689	  0.22024	 92.55053	714.23999	 36.40	
  8.495	135.039	 90.10144	 22.65345	 56.72651	 56.67039	 21.18010	  0.35097	 92.54835	714.40997	 36.50	
  8.487	123.723	 90.16068	 25.99041	 52.72985	 59.90598	 18.51559	  0.44733	 92.51847	714.23999	 36.50	
  8.492	112.575	 90.24458	 29.66829	 48.39921	 62.24599	 16.62732	  0.55275	 92.53675	714.33002	 36.60	
  8.510	101.220	 90.32659	 34.24652	 43.62429	 63.78723	 15.33079	  0.65017	 92.56790	714.31000	 36.60	
  8.500	 90.000	 90.38654	 38.95757	 38.90844	 64.21621	 14.96953	  0.71042	 92.55894	714.20001	 36.70	
  8.510	 78.780	 90.41639	 44.12429	 34.09017	 63.69387	 15.35384	  0.75506	 92.57024	714.33002	 36.70	
  8.492	 67.425	 90.50822	 48.84809	 29.87799	 62.13585	 16.62517	  0.80483	 92.62627	714.27002	 36.80	
  8.487	 56.277	 90.53815	 52.82321	 26.09543	 59.68436	 18.55556	  0.85908	 92.60385	714.33002	 36.80	
  8.495	 44.961	 90.56205	 56.87949	 22.76971	 56.37940	 21.48819	  0.90171	 92.57742	714.28003	 36.90	
  8.494	 33.806	 90.56291	 60.03674	 20.08780	 52.43863	 25.06608	  0.93884	 92.59233	714.16998	 36.90	
  8.502	 22.507	 90.58662	 62.40241	 18.08994	 48.10425	 29.09279	  0.94669	 92.61216	714.25000	 36.90	
  8.491	 11.296	 90.61832	 63.74753	 16.73929	 43.35118	 33.75786	  0.89253	 92.59920	714.27002	 37.00	
  8.500	  0.000	 90.59533	 64.20744	 16.34252	 38.36525	 38.45840	  0.81208	 92.54422	714.25000	 37.00	
  8.491	-11.296	 90.67315	 63.73252	 16.81596	 33.79087	 43.19177	  0.71657	 92.60981	714.19000	 37.00	
  8.502	-22.507	 90.66800	 62.19518	 18.01114	 29.05357	 47.94624	  0.53909	 92.61609	714.07001	 37.10	
  8.494	-33.806	 90.62969	 59.75477	 20.15756	 25.29561	 52.26229	  0.35743	 92.60729	714.09003	 37.10	
  8.495	-44.961	 90.59482	 56.55480	 22.97307	 22.04421	 56.02364	  0.18855	 92.66433	714.12000	 37.10	
  8.487	-56.277	 90.49716	 52.50169	 26.40195	 19.37848	 59.18550	  0.03836	 92.62598	714.08002	 37.20	
  8.492	-67.425	 90.37743	 47.81020	 30.36594	 17.39416	 61.49947	 -0.04993	 92.59886	714.12000	 37.20	
  8.510	-78.780	 90.33362	 43.50298	 34.93155	 16.21493	 62.93220	 -0.19655	 92.66136	714.28003	 37.30	
  8.500	-90.000	 90.18871	 38.74024	 39.64606	 15.85433	 63.23766	 -0.28789	 92.60043	714.09998	 37.30	
  8.510	-101.220	 90.13182	 34.13589	 44.37305	 16.26709	 62.59534	 -0.38522	 92.66593	714.23999	 37.40	
  8.492	-112.575	 90.05858	 29.17801	 49.14419	 17.71398	 60.91938	 -0.34275	 92.65882	714.21002	 37.40	
  8.487	-123.723	 90.08414	 25.35193	 53.75071	 19.85311	 58.36894	 -0.43911	 92.75587	714.23999	 37.50	
  8.495	-135.039	 90.02345	 22.04651	 57.57590	 22.53431	 54.99541	 -0.35857	 92.73944	714.25000	 37.50	
  8.494	-146.194	 89.98173	 19.40794	 60.64224	 25.91447	 51.28512	 -0.33669	 92.71937	714.21002	 37.50	
  8.502	-157.493	 90.04397	 17.38475	 62.98310	 29.94945	 46.86890	 -0.29025	 92.76414	714.26001	 37.60	
  8.491	-168.704	 90.09419	 16.31675	 64.30478	 34.59507	 42.13631	 -0.22702	 92.77561	714.28003	 37.60	
  8.500	180.000	 90.09609	 15.88129	 64.73025	 39.17566	 37.47093	 -0.18370	 92.79124	714.14001	 37.70	
 10.200	180.000	 88.70956	 10.71466	 68.57968	 37.84465	 36.21670	 -1.05195	 92.80682	714.26001	 37.70	
 10.191	-170.497	 88.70594	 11.08811	 68.22861	 33.24227	 40.81290	 -1.09773	 92.79224	714.27002	 37.70	
 10.210	-161.034	 88.67757	 11.93382	 67.11430	 28.64439	 45.72437	 -1.44425	 92.84251	714.25000	 37.80	
 10.194	-151.526	 88.58356	 13.48683	 65.13441	 24.41062	 50.33981	 -1.23792	 92.76559	714.21997	 37.80	
 10.190	-142.105	 88.63795	 15.74059	 62.48895	 20.79096	 54.44571	 -1.21925	 92.80683	714.22998	 37.90	
 10.215	-132.646	 88.62049	 18.50335	 59.13070	 17.35106	 58.28423	 -1.43776	 92.78259	714.23999	 37.90	
 10.203	-123.092	 88.65536	 21.91735	 55.07788	 14.76993	 61.62327	 -1.44126	 92.77143	714.17999	 37.90	
 10.192	-113.678	 88.75678	 25.72515	 50.74663	 12.85974	 64.24327	 -1.17667	 92.78802	714.17999	 38.00	
 10.208	-104.249	 88.86681	 30.03088	 46.15787	 11.32074	 66.25056	 -1.44461	 92.86577	714.01001	 38.00	
 10.210	-94.801	 88.91296	 34.63690	 41.32763	 10.65133	 67.32011	 -1.17700	 92.80547	714.14001	 38.00	
 10.210	-85.199	 89.03025	 39.93930	 36.52141	 10.53875	 67.50067	 -1.07556	 92.79660	714.12000	 38.00	
 10.208	-75.751	 89.08496	 44.69356	 31.84167	 11.06023	 66.72507	 -1.17865	 92.77943	714.21002	 38.10	
 10.192	-66.322	 89.22388	 49.01304	 27.39683	 12.37553	 65.06649	 -0.85582	 92.80067	714.13000	 38.10	
 10.203	-56.908	 89.32571	 53.86540	 23.41740	 14.24539	 62.65039	 -0.98994	 92.80028	714.10999	 38.10	
 10.215	-47.354	 89.39915	 58.01018	 19.82240	 16.82360	 59.51562	 -0.68296	 92.80833	714.10999	 38.20	
 10.190	-37.895	 89.55208	 61.45359	 17.04806	 20.25041	 55.69939	 -0.55675	 92.81829	714.15002	 38.20	
 10.194	-28.474	 89.56420	 64.26580	 14.46706	 23.89820	 51.57941	 -0.35592	 92.78743	714.17999	 38.30	
 10.210	-18.966	 89.57668	 66.41295	 12.49540	 28.07398	 46.93316	 -0.18665	 92.78535	714.21997	 38.30	
 10.191	 -9.503	 89.58444	 67.70871	 11.61850	 32.63758	 42.19617	 -0.03645	 92.75582	714.17999	 38.30	
 10.200	  0.000	 89.53607	 68.19333	 11.23092	 37.17159	 37.42038	  0.07500	 92.76643	714.14001	 38.30	
 10.191	  9.503	 89.50777	 67.79282	 11.48763	 42.26227	 32.64697	  0.13014	 92.78110	714.19000	 38.40	
 10.210	 18.966	 89.45965	 66.65331	 12.25851	 47.08816	 27.91983	  0.13149	 92.77988	714.22998	 38.40	
 10.194	 28.474	 89.42774	 64.67986	 13.85361	 51.63118	 23.64131	  0.15804	 92.75347	714.10999	 38.40	
 10.190	 37.895	 89.45651	 62.00437	 16.04995	 55.95473	 19.78249	  0.14379	 92.79845	714.17999	 38.40	
 10.215	 47.354	 89.44678	 58.60287	 18.76523	 59.88333	 16.46649	  0.06829	 92.83169	714.17999	 38.50	
 10.203	 56.908	 89.31121	 54.42314	 22.11935	 63.05959	 13.64354	 -0.04189	 92.74931	714.21002	 38.50	
 10.192	 66.322	 89.33670	 50.25320	 26.34258	 65.55563	 11.43440	 -0.06562	 92.81501	714.19000	 38.50	
 10.208	 75.751	 89.30677	 45.61441	 30.55986	 67.37926	 10.14452	 -0.08195	 92.77392	714.15997	 38.50	
 10.210	 85.199	 89.28055	 40.83407	 34.94554	 68.35253	  9.60589	 -0.09407	 92.79411	714.10999	 38.60	
 10.210	 94.801	 89.24709	 35.79882	 39.95742	 68.43914	  9.71080	 -0.09033	 92.81441	714.17999	 38.60	
 10.208	104.249	 89.16209	 30.91609	 44.69486	 67.61382	 10.40594	 -0.16913	 92.77492	714.20001	 38.60	
 10.192	113.678	 89.06721	 26.90950	 49.36476	 65.83733	 11.62454	 -0.28640	 92.75858	714.16998	 38.60	
 10.203	123.092	 89.07014	 23.05603	 53.79381	 63.49128	 13.46573	 -0.46097	 92.82746	714.15002	 38.60	
 10.215	132.646	 88.96702	 19.57426	 57.99694	 60.26012	 16.06529	 -0.49504	 92.77685	714.17999	 38.60	
 10.190	142.105	 88.88580	 16.24812	 61.60515	 56.37326	 19.20744	 -0.83797	 92.76900	714.26001	 38.70	
 10.194	151.526	 88.85202	 13.85656	 64.51385	 52.13987	 22.89299	 -1.11753	 92.78532	714.19000	 38.70	
 10.210	161.034	 88.75491	 12.12170	 66.65266	 47.64060	 26.86558	 -1.32557	 92.75152	714.17999	 38.70	
 10.191	170.497	 88.74294	 11.18518	 67.99725	 42.82473	 31.44295	 -1.44952	 92.77341	714.21997	 38.80	
 11.899	171.783	 87.00688	  5.68597	 71.73401	 41.36169	 29.90347	 -2.35297	 92.78300	714.21997	 38.80	
 11.890	163.610	 87.08319	  6.67258	 70.48376	 46.28702	 25.43788	 -2.30057	 92.80347	714.12000	 38.80	
 11.889	155.445	 87.12198	  7.98949	 68.54478	 50.89880	 21.34902	 -2.19207	 92.78766	714.22998	 38.90	
 11.909	147.299	 87.16105	  9.89954	 65.96785	 55.38969	 17.38671	 -2.14626	 92.77874	714.25000	 38.90	
 11.902	139.148	 87.28471	 12.57802	 62.76596	 59.63375	 13.84951	 -2.12753	 92.82368	714.23999	 38.90	
 11.894	130.867	 87.38326	 15.82249	 58.95332	 63.33709	 10.86474	 -2.09528	 92.84065	714.13000	 38.90	
 11.897	122.732	 87.38026	 19.39049	 54.65981	 66.31684	  8.51541	 -2.01695	 92.74266	714.23999	 38.90	
 11.903	114.597	 87.49030	 23.24645	 50.22906	 68.90438	  6.65675	 -2.02980	 92.81087	714.20001	 39.00	
 11.893	106.346	 87.53257	 27.73039	 45.43415	 70.65937	  5.47321	 -1.66412	 92.77724	714.19000	 39.00	
 11.892	 98.155	 87.61960	 32.21445	 40.64163	 71.76297	  4.72512	 -1.66140	 92.81619	714.23999	 39.00	
 11.900	 90.000	 87.65406	 36.68932	 35.66422	 72.12717	  4.25087	 -1.01362	 92.83408	714.07001	 39.10	
 11.892	 81.845	 87.74946	 41.54854	 31.13633	 71.65275	  4.43797	 -1.23710	 92.86357	714.12000	 39.10	
 11.893	 73.654	 87.71187	 46.60732	 26.71710	 70.36617	  5.17860	 -1.10556	 92.77488	714.09003	 39.10	
 11.903	 65.403	 87.74880	 51.19758	 22.53005	 68.43255	  6.67504	 -1.10267	 92.81332	714.12000	 39.10	
 11.897	 57.268	 87.82761	 55.50988	 18.49195	 65.93164	  8.80114	 -0.95877	 92.85928	714.21002	 39.20	
 11.894	 49.133	 87.84793	 59.70846	 15.16451	 62.85701	 11.46644	 -1.06107	 92.84560	714.19000	 39.20	
 11.902	 40.852	 87.88762	 63.44179	 12.18803	 59.10520	 14.56498	 -0.74462	 92.88734	714.14001	 39.20	
 11.909	 32.701	 87.83324	 66.40117	  9.84891	 54.82680	 18.06918	 -0.76660	 92.83273	714.17999	 39.20	
 11.889	 24.555	 87.92478	 68.69599	  8.08274	 50.33426	 22.15087	 -0.71254	 92.86583	714.32001	 39.20	
 11.890	 16.390	 88.00552	 70.49028	  6.90836	 45.58006	 26.65757	 -0.72971	 92.87287	714.12000	 39.30	
 11.899	  8.217	 88.00420	 71.59782	  6.15415	 40.52489	 31.34685	 -0.73305	 92.86472	714.23999	 39.30	
 11.900	  0.000	 88.05834	 72.01252	  5.99353	 35.68856	 36.31754	 -0.81941	 92.91570	714.20001	 39.30	
 11.899	 -8.217	 88.08360	 71.58305	  6.38876	 31.02836	 41.08302	 -0.94781	 92.89246	714.25000	 39.30	
 11.890	-16.390	 88.09581	 70.37679	  7.15959	 26.52295	 45.79984	 -1.18706	 92.90154	714.21002	 39.40	
 11.889	-24.555	 88.04707	 68.40955	  8.50556	 22.18912	 50.58002	 -1.32899	 92.86855	714.19000	 39.40	
 11.909	-32.701	 88.00044	 65.87748	 10.55814	 18.13257	 54.96776	 -1.57519	 92.87714	714.15002	 39.40	
 11.902	-40.852	 87.88905	 62.77338	 13.09907	 14.50151	 59.11072	 -1.95414	 92.85373	714.09003	 39.40	
 11.894	-49.133	 87.79524	 59.00102	 16.24185	 11.48910	 62.80240	 -1.82580	 92.84886	714.21997	 39.50	
 11.897	-57.268	 87.73872	 54.81286	 19.77304	  9.00600	 65.82726	 -2.01178	 92.86024	714.20001	 39.50	
 11.903	-65.403	 87.65723	 49.94106	 23.66367	  7.11305	 68.21827	 -1.86469	 92.83675	714.13000	 39.50	
 11.893	-73.654	 87.61256	 45.65026	 28.09160	  5.85223	 70.02502	 -2.01897	 92.90928	714.12000	 39.50	
 11.892	-81.845	 87.44217	 40.81576	 32.63765	  5.27889	 70.99356	 -1.99324	 92.84234	714.13000	 39.50	
 11.900	-90.000	 87.32133	 36.07477	 37.30107	  5.17993	 71.24100	 -1.89123	 92.85739	714.17999	 39.50	
 11.892	-98.155	 87.27240	 30.97510	 42.00747	  5.64281	 70.68920	 -2.15833	 92.88792	714.15997	 39.50	
 11.893	-106.346	 87.20438	 26.35999	 46.79212	  6.36908	 69.42966	 -2.11430	 92.92377	714.21997	 39.50	
 11.903	-114.597	 87.06563	 22.20346	 51.49693	  7.64848	 67.34428	 -2.14672	 92.84145	714.19000	 39.50	
 11.897	-122.732	 86.97879	 18.40982	 56.24691	  9.43619	 64.67998	 -2.17180	 92.86420	714.23999	 39.60	
 11.894	-130.867	 86.96434	 15.00561	 60.31678	 12.11271	 61.40083	 -2.22502	 92.89828	714.26001	 39.60	
 11.902	-139.148	 86.94481	 12.04827	 63.94697	 15.25077	 57.50568	 -2.21373	 92.90154	714.19000	 39.60	
 11.909	-147.299	 86.94761	  9.52709	 67.02593	 18.78437	 53.36481	 -2.24360	 92.93528	714.22998	 39.60	
 11.889	-155.445	 86.99709	  7.82877	 69.34317	 22.94072	 48.95514	 -2.24049	 92.88981	714.09003	 39.60	
 11.890	-163.610	 87.07941	  6.61017	 70.99829	 27.31071	 44.28039	 -2.27099	 92.93057	714.23999	 39.60	
 11.899	-171.783	 87.08765	  5.85915	 72.00249	 31.88736	 39.37840	 -2.33461	 92.90926	714.20001	 39.60	
 11.900	180.000	 87.07961	  5.56405	 72.22556	 36.57090	 34.73119	 -2.37837	 92.87435	714.23999	 39.60	
 13.600	180.000	 85.06299	  0.14512	 75.67613	 34.87400	 33.02464	 -3.04047	 92.94678	714.17999	 39.70	
 13.608	-172.853	 84.99206	  0.41045	 75.44473	 30.24415	 37.61500	 -2.95399	 92.90152	714.26001	 39.70	
 13.611	-165.583	 84.97370	  1.07174	 74.62212	 25.65097	 42.53948	 -2.81024	 92.92118	714.10999	 39.70	
 13.601	-158.353	 85.00044	  2.05304	 73.17850	 21.10291	 47.33606	 -2.71613	 92.97935	714.09003	 39.70	
 13.609	-151.210	 85.03045	  3.62928	 71.08501	 17.08016	 51.87054	 -2.62778	 93.01577	714.16998	 39.80	
 13.611	-143.999	 84.99968	  5.75312	 68.34481	 12.73584	 56.26273	 -2.57983	 93.03037	714.12000	 39.80	
 13.601	-136.825	 85.01604	  8.26133	 65.07532	  9.50095	 60.44032	 -2.55724	 93.03278	714.10999	 39.80	
 13.596	-129.640	 85.04242	 11.26613	 61.38578	  6.68928	 64.10745	 -2.57012	 93.00307	714.04999	 39.80	
