FileType=PCF
NHL=14
Date=03/19/19	11:29:59
Facility=APL
Serial=16071-6
Customer=NASA
NP=6
Mach=0.380000
Calibration=1:1
CalPts=490
TstPts=95
PortNumbering=AP Standard
Units=Torr C m/s kg/m^3 deg mm 
Theta[deg]	Phi[deg]	P1[Torr]	P2[Torr]	P3[Torr]	P4[Torr]	P5[Torr]	P6[Torr]	Pt[Torr]	Ps[Abs,Torr]	Ts[C]	
  0.000	  0.000	 67.48223	 29.97676	 30.38333	 29.88327	 29.13416	  1.57474	 67.51419	715.22998	 31.30	
  1.691	128.401	 67.45905	 27.65650	 32.51855	 32.76834	 26.20380	  1.53676	 67.52535	715.26001	 31.30	
  1.692	 77.194	 67.51585	 30.75429	 29.45741	 33.46760	 25.61106	  1.62880	 67.55099	715.27002	 31.30	
  1.699	 26.182	 67.53732	 33.16590	 27.09062	 31.42342	 27.54015	  1.66173	 67.55493	715.28998	 31.40	
  1.699	-26.182	 67.53078	 33.13543	 27.15723	 28.11876	 30.73215	  1.58905	 67.54773	715.28998	 31.40	
  1.692	-77.194	 67.50191	 30.64608	 29.59668	 26.29957	 32.61232	  1.47965	 67.54816	715.35999	 31.40	
  1.691	-128.401	 67.43797	 27.56064	 32.62411	 26.97956	 31.76054	  1.41641	 67.50871	715.29999	 31.50	
  1.700	180.000	 67.40923	 26.19500	 33.96359	 29.78608	 28.95624	  1.42374	 67.50570	715.25000	 31.60	
  3.400	180.000	 67.26115	 22.14109	 37.40960	 29.51116	 28.59861	  1.18537	 67.53406	715.32001	 31.60	
  3.388	-152.325	 67.31342	 22.91131	 36.65415	 26.25402	 31.96855	  1.14407	 67.58633	715.25000	 31.60	
  3.397	-124.529	 67.31071	 25.08333	 34.36475	 23.66732	 34.75120	  1.15334	 67.54992	715.35999	 31.60	
  3.399	-96.763	 67.37104	 28.67126	 31.10809	 22.40199	 36.13650	  1.20355	 67.56116	715.26001	 31.70	
  3.394	-69.283	 67.42738	 32.12951	 27.67161	 22.80186	 35.81355	  1.30545	 67.55859	715.19000	 31.70	
  3.400	-41.398	 67.46452	 35.08522	 24.79239	 24.70701	 33.80717	  1.43081	 67.53195	715.26001	 31.70	
  3.401	-14.021	 67.48970	 36.74416	 23.20749	 27.56654	 30.74216	  1.54609	 67.53047	715.22998	 31.80	
  3.401	 14.021	 67.53281	 36.82050	 23.13539	 31.18993	 27.23336	  1.61945	 67.57889	715.26001	 31.80	
  3.400	 41.398	 67.50690	 35.20684	 24.63832	 34.39168	 24.20379	  1.62778	 67.58987	715.26001	 31.80	
  3.394	 69.283	 67.46793	 32.30056	 27.41476	 36.51003	 22.20853	  1.59115	 67.57127	715.26001	 31.80	
  3.399	 96.763	 67.44027	 28.84173	 30.82253	 37.00159	 21.71656	  1.48987	 67.59007	715.25000	 31.90	
  3.397	124.529	 67.38513	 25.29021	 34.13302	 35.75115	 22.82937	  1.38027	 67.58428	715.16998	 31.90	
  3.388	152.325	 67.32468	 22.96466	 36.55009	 33.04893	 25.30438	  1.26749	 67.57109	715.22998	 31.90	
  5.099	161.165	 66.95986	 19.23325	 40.08899	 32.70095	 24.64714	  0.89656	 67.58241	715.28998	 32.00	
  5.109	142.013	 66.99966	 20.78571	 38.32671	 36.00374	 21.60057	  0.97658	 67.60645	715.22998	 32.00	
  5.095	123.033	 67.06664	 23.06566	 35.55410	 38.54658	 19.38890	  1.10019	 67.59831	715.19000	 32.00	
  5.105	104.191	 67.12071	 26.31175	 32.16661	 40.10968	 18.12079	  1.20722	 67.58339	715.16998	 32.10	
  5.093	 85.207	 67.18718	 30.19476	 28.56879	 40.37486	 17.94922	  1.30762	 67.60119	715.28998	 32.10	
  5.104	 66.290	 67.18930	 33.73852	 25.14539	 39.31270	 18.79983	  1.37402	 67.54793	715.15002	 32.10	
  5.094	 47.331	 67.22197	 36.82634	 22.25969	 37.16339	 20.69493	  1.43023	 67.56383	715.15997	 32.20	
  5.089	 28.397	 67.19273	 39.00241	 20.22593	 34.16277	 23.48613	  1.43615	 67.51712	715.23999	 32.20	
  5.096	  9.576	 67.24007	 40.13535	 19.21567	 30.66897	 26.83295	  1.40794	 67.55653	715.26001	 32.20	
  5.096	 -9.576	 67.24581	 40.10059	 19.25949	 27.00008	 30.43427	  1.34469	 67.53982	715.23999	 32.20	
  5.089	-28.397	 67.23249	 38.87989	 20.41273	 23.75818	 33.88501	  1.23071	 67.55251	715.23999	 32.30	
  5.094	-47.331	 67.14723	 36.58435	 22.52515	 20.99228	 36.84474	  1.09441	 67.53696	715.19000	 32.30	
  5.104	-66.290	 67.10812	 33.52035	 25.47024	 19.19947	 38.84269	  0.98552	 67.53444	715.10999	 32.30	
  5.093	-85.207	 67.06761	 30.02746	 28.93577	 18.48176	 39.65513	  0.88167	 67.54318	715.15002	 32.40	
  5.105	-104.191	 66.96095	 26.38820	 32.50529	 18.77454	 39.17124	  0.80227	 67.50288	715.19000	 32.40	
  5.095	-123.033	 66.94319	 22.91655	 35.82978	 20.19424	 37.48431	  0.77307	 67.54239	715.17999	 32.40	
  5.109	-142.013	 66.87196	 20.38015	 38.49227	 22.53647	 34.83636	  0.75832	 67.51958	715.14001	 32.40	
  5.099	-161.165	 66.85767	 19.12885	 40.19002	 25.68005	 31.47074	  0.77470	 67.50978	715.15997	 32.50	
  5.100	180.000	 66.85606	 18.66275	 40.68231	 29.07277	 28.01315	  0.82003	 67.49694	715.26001	 32.50	
  6.800	180.000	 66.21923	 14.82291	 43.85136	 28.47095	 27.24277	  0.34533	 67.46962	715.15002	 32.50	
  6.796	-166.229	 66.19724	 15.15014	 43.49274	 25.15015	 30.62494	  0.32896	 67.45453	715.31000	 32.50	
  6.808	-152.311	 66.16834	 16.24096	 42.29520	 21.91359	 34.08485	  0.28909	 67.44404	715.21997	 32.60	
  6.795	-138.383	 66.19373	 18.07516	 40.25229	 19.17226	 37.16193	  0.28843	 67.45251	715.25000	 32.60	
  6.792	-124.591	 66.25874	 20.38460	 37.59917	 17.02910	 39.76566	  0.27991	 67.47376	715.21997	 32.60	
  6.787	-110.754	 66.34000	 22.98995	 34.44279	 15.59028	 41.65108	  0.30741	 67.49631	715.19000	 32.70	
  6.800	-96.985	 66.37171	 26.60604	 31.04095	 14.72512	 42.70499	  0.31792	 67.45528	715.27002	 32.70	
  6.800	-83.015	 66.42536	 30.20212	 27.51783	 14.64480	 42.83082	  0.39440	 67.45122	715.26001	 32.70	
  6.787	-69.246	 66.49841	 33.58400	 24.21206	 15.37782	 42.01047	  0.51590	 67.44907	715.26001	 32.70	
  6.792	-55.409	 66.59082	 36.76043	 21.20890	 16.75306	 40.40987	  0.61190	 67.49752	715.19000	 32.80	
  6.795	-41.617	 66.59713	 39.42332	 18.72916	 18.81125	 37.98265	  0.71030	 67.45249	715.28998	 32.80	
  6.808	-27.689	 66.66952	 41.52451	 16.83901	 21.53712	 34.95998	  0.83352	 67.45731	715.21002	 32.80	
  6.796	-13.771	 66.70613	 42.99092	 15.67957	 24.75676	 31.54159	  0.96172	 67.49134	715.21997	 32.80	
  6.800	  0.000	 66.69619	 43.47810	 15.22840	 28.06185	 28.10125	  1.03873	 67.48854	715.28003	 32.90	
  6.796	 13.771	 66.70840	 43.06419	 15.54317	 31.62296	 24.71865	  1.09060	 67.53038	715.23999	 32.90	
  6.808	 27.689	 66.67919	 41.79098	 16.57289	 35.09347	 21.44136	  1.11466	 67.51408	715.29999	 32.90	
  6.795	 41.617	 66.65903	 39.76892	 18.38062	 38.05962	 18.70375	  1.08222	 67.48241	715.37000	 32.90	
  6.792	 55.409	 66.65874	 37.17617	 20.77585	 40.58185	 16.54286	  1.04817	 67.50163	715.31000	 32.90	
  6.787	 69.246	 66.63970	 33.99150	 23.70631	 42.43020	 15.05089	  1.01005	 67.51175	715.34998	 33.00	
  6.800	 83.015	 66.58079	 30.51410	 26.92419	 43.41280	 14.22883	  0.93737	 67.51298	715.27002	 33.00	
  6.800	 96.985	 66.52470	 26.68794	 30.43246	 43.48594	 14.16623	  0.87473	 67.49160	715.33002	 33.00	
  6.787	110.754	 66.46671	 23.33903	 33.88880	 42.63064	 14.85338	  0.78289	 67.49246	715.21997	 33.00	
  6.792	124.591	 66.45015	 20.69941	 37.10740	 40.94086	 16.16040	  0.69650	 67.53458	715.20001	 33.00	
  6.795	138.383	 66.34635	 18.25208	 39.83985	 38.41970	 18.22429	  0.57733	 67.48194	715.12000	 33.10	
  6.808	152.311	 66.28101	 16.36268	 42.00567	 35.44093	 20.80859	  0.51582	 67.49374	715.09003	 33.10	
  6.796	166.229	 66.31186	 15.29569	 43.37865	 32.04935	 23.98216	  0.42904	 67.54814	715.10999	 33.10	
  8.491	168.704	 65.44611	 11.38090	 46.46126	 31.40590	 22.99383	 -0.29314	 67.51067	715.06000	 33.10	
  8.502	157.493	 65.47178	 12.26287	 45.32860	 34.92829	 19.75271	 -0.01424	 67.51527	715.10999	 33.10	
  8.494	146.194	 65.52612	 13.78192	 43.40726	 38.13354	 16.96523	  0.04655	 67.48579	715.19000	 33.20	
  8.495	135.039	 65.57780	 15.78745	 40.98855	 41.02189	 14.61352	  0.14764	 67.48051	715.21997	 33.20	
  8.487	123.723	 65.59892	 18.31428	 38.04696	 43.42165	 12.62221	  0.23498	 67.46242	715.21997	 33.20	
  8.492	112.575	 65.68508	 21.22367	 34.83116	 45.23331	 11.22233	  0.22168	 67.49512	715.09998	 33.20	
  8.510	101.220	 65.72359	 24.51181	 31.29972	 46.38622	 10.39704	  0.39261	 67.48004	715.14001	 33.20	
  8.500	 90.000	 65.78006	 27.72674	 27.77330	 46.69558	 10.20796	  0.45641	 67.48222	715.16998	 33.30	
  8.510	 78.780	 65.85009	 31.58960	 24.37047	 46.30060	 10.53650	  0.49230	 67.51220	715.28998	 33.30	
  8.492	 67.425	 65.86293	 35.14468	 21.12216	 44.99660	 11.57857	  0.54122	 67.47251	715.15997	 33.30	
  8.487	 56.277	 65.94538	 38.33054	 18.32817	 43.09855	 13.16510	  0.58977	 67.51667	715.14001	 33.30	
  8.495	 44.961	 65.96793	 41.10588	 15.88132	 40.62337	 15.18062	  0.64531	 67.51025	715.09998	 33.30	
  8.494	 33.806	 65.95624	 43.34549	 13.94726	 37.73772	 17.66846	  0.69177	 67.51207	715.33002	 33.30	
  8.502	 22.507	 65.95203	 45.16653	 12.44525	 34.44801	 20.58806	  0.69565	 67.50949	715.20001	 33.30	
  8.491	 11.296	 65.95461	 46.25788	 11.57620	 30.85081	 23.93483	  0.66523	 67.50089	715.27002	 33.40	
  8.500	  0.000	 65.99057	 46.64813	 11.28693	 27.21957	 27.44802	  0.60010	 67.51675	715.15997	 33.40	
  8.491	-11.296	 65.97314	 46.17545	 11.72105	 23.78901	 30.98778	  0.53233	 67.49878	715.22998	 33.40	
  8.502	-22.507	 65.93256	 45.01626	 12.60949	 20.47515	 34.51328	  0.41324	 67.47595	715.20001	 33.40	
  8.494	-33.806	 65.90436	 43.04365	 14.18726	 17.52998	 37.79555	  0.27549	 67.47710	715.14001	 33.50	
  8.495	-44.961	 65.89093	 40.56869	 16.27141	 15.15273	 40.64863	  0.13072	 67.50157	715.13000	 33.50	
  8.487	-56.277	 65.84859	 37.78259	 18.84475	 13.23019	 42.99184	 -0.02742	 67.51560	715.13000	 33.50	
  8.492	-67.425	 65.77451	 34.64341	 21.76409	 11.77560	 44.71778	 -0.02631	 67.51096	715.23999	 33.50	
  8.510	-78.780	 65.64063	 31.08263	 25.12886	 10.89716	 45.75498	 -0.15247	 67.47855	714.51001	 33.50	
  8.500	-90.000	 65.58904	 27.48532	 28.61693	 10.69364	 46.00709	 -0.24091	 67.49705	715.10999	 33.50	
  8.510	-101.220	 65.52234	 23.74130	 32.11837	 11.06486	 45.50639	 -0.33894	 67.47817	715.21997	 33.50	
  8.492	-112.575	 65.50002	 20.47231	 35.61119	 12.10554	 44.24013	 -0.26416	 67.50912	715.09998	 33.50	
  8.487	-123.723	 65.41885	 18.08351	 38.73754	 13.57699	 42.28867	 -0.50501	 67.48651	715.15002	 33.50	
  8.495	-135.039	 65.37608	 15.59131	 41.62164	 15.53668	 39.72646	 -0.31267	 67.49256	715.12000	 33.60	
  8.494	-146.194	 65.33585	 13.61774	 43.90139	 18.01845	 36.76619	 -0.25596	 67.46703	715.13000	 33.60	
  8.502	-157.493	 65.35296	 12.06149	 45.65846	 20.98756	 33.43604	 -0.22193	 67.49537	715.17999	 33.60	
  8.491	-168.704	 65.37806	 11.22524	 46.61319	 24.32277	 29.84947	 -0.19441	 67.48959	715.25000	 33.60	
  8.500	180.000	 65.35882	 10.99375	 46.88751	 27.74442	 26.41100	 -0.16562	 67.45740	715.01001	 33.60	
 10.200	180.000	 64.29105	  7.06146	 49.73029	 26.86801	 25.49026	 -1.14017	 67.46406	715.09003	 33.60	
 10.191	-170.497	 64.28214	  7.26429	 49.49319	 23.39621	 28.89027	 -1.13229	 67.46769	715.13000	 33.60	
 10.210	-161.034	 64.26830	  7.93563	 48.72583	 19.96036	 32.52041	 -1.14548	 67.47624	715.04999	 33.60	
 10.194	-151.526	 64.25929	  9.22580	 47.23637	 16.82359	 36.03169	 -1.15491	 67.50533	715.20001	 33.70	
 10.190	-142.105	 64.26223	 10.95596	 45.26370	 14.16632	 39.16613	 -1.15504	 67.49450	715.14001	 33.70	
 10.215	-132.646	 64.26608	 13.00221	 42.71900	 11.85182	 42.13450	 -1.18748	 67.48448	715.15002	 33.70	
 10.203	-123.092	 64.24048	 15.45822	 39.70352	  9.82263	 44.60856	 -1.16511	 67.43965	715.21002	 33.70	
 10.192	-113.678	 64.32624	 18.23380	 36.52911	  8.33917	 46.54068	 -0.96012	 67.46364	715.13000	 33.70	
 10.208	-104.249	 64.39627	 20.98711	 33.12067	  7.33676	 47.97485	 -1.15149	 67.46555	715.15997	 33.70	
 10.210	-94.801	 64.47623	 24.55646	 29.55477	  6.84634	 48.76700	 -0.93697	 67.49258	715.15002	 33.70	
 10.210	-85.199	 64.57293	 28.38218	 25.96696	  6.74090	 48.93399	 -0.81141	 67.49886	715.21002	 33.70	
 10.208	-75.751	 64.63882	 31.98901	 22.51353	  7.09856	 48.38753	 -0.97452	 67.49412	715.17999	 33.70	
 10.192	-66.322	 64.72154	 35.43028	 19.27462	  7.98779	 47.16975	 -0.66507	 67.47591	715.15997	 33.70	
 10.203	-56.908	 64.79845	 38.56973	 16.36124	  9.39408	 45.43981	 -0.84804	 67.50031	715.10999	 33.70	
 10.215	-47.354	 64.81953	 41.50735	 13.76306	 11.35877	 43.08795	 -0.52300	 67.44534	715.20001	 33.70	
 10.190	-37.895	 64.92226	 44.24005	 11.62513	 13.69946	 40.28037	 -0.49756	 67.45474	715.10999	 33.80	
 10.194	-28.474	 64.98681	 46.46090	  9.86860	 16.36735	 37.18941	 -0.27490	 67.49917	715.21002	 33.80	
 10.210	-18.966	 64.96216	 48.08834	  8.52796	 19.47608	 33.69427	 -0.13388	 67.45256	715.19000	 33.80	
 10.191	 -9.503	 65.00227	 49.03686	  7.89637	 22.86515	 30.09558	 -0.00179	 67.46609	715.12000	 33.80	
 10.200	  0.000	 65.01791	 49.42065	  7.66072	 26.37244	 26.57718	  0.06464	 67.48825	714.84998	 33.80	
 10.191	  9.503	 64.99061	 49.11871	  7.85300	 29.94477	 23.07484	  0.13031	 67.48330	715.12000	 33.80	
 10.210	 18.966	 64.97385	 48.23934	  8.44947	 33.55840	 19.68200	  0.15414	 67.47150	715.23999	 33.80	
 10.194	 28.474	 64.94167	 46.70877	  9.68064	 36.95436	 16.65854	  0.14606	 67.45821	715.17999	 33.80	
 10.190	 37.895	 64.95591	 44.62262	 11.26864	 40.16051	 13.95282	  0.11029	 67.47931	715.21002	 33.80	
 10.215	 47.354	 64.95903	 42.15721	 13.25549	 43.05406	 11.50534	  0.02915	 67.49200	714.40997	 33.90	
 10.203	 56.908	 64.96616	 39.29802	 15.71839	 45.49093	  9.52337	 -0.03924	 67.53230	714.34003	 33.90	
 10.192	 66.322	 64.88283	 36.08362	 18.44176	 47.34303	  8.05564	 -0.29286	 67.47511	714.77002	 33.90	
 10.208	 75.751	 64.85053	 32.59585	 21.53688	 48.71329	  6.97495	 -0.16816	 67.46686	715.12000	 33.90	
 10.210	 85.199	 64.83418	 28.90061	 24.92772	 49.48105	  6.47079	 -0.14386	 67.49715	715.14001	 33.90	
 10.210	 94.801	 64.74432	 25.34754	 28.44241	 49.51131	  6.35593	 -0.15207	 67.44575	715.10999	 34.00	
 10.208	104.249	 64.74200	 21.92827	 32.03085	 48.93301	  6.73336	 -0.18467	 67.50859	715.21002	 34.00	
 10.192	113.678	 64.66443	 18.70740	 35.50375	 47.66444	  7.67995	 -0.76506	 67.47328	714.48999	 34.00	
 10.203	123.092	 64.62761	 15.78806	 38.82525	 45.89630	  8.91449	 -0.86326	 67.51733	714.51001	 34.00	
 10.215	132.646	 64.52940	 13.21576	 41.84966	 43.53191	 10.70737	 -0.93244	 67.48258	714.48999	 34.00	
 10.190	142.105	 64.48832	 11.14139	 44.51767	 40.68565	 13.12169	 -0.95700	 67.47093	714.44000	 34.00	
 10.194	151.526	 64.41157	  9.40188	 46.68615	 37.50489	 15.79885	 -0.99291	 67.45517	715.15002	 34.10	
 10.210	161.034	 64.37957	  8.08134	 48.38181	 34.16555	 18.60684	 -1.05360	 67.50128	715.23999	 34.10	
 10.191	170.497	 64.31734	  7.40536	 49.32738	 30.46853	 21.97304	 -1.15783	 67.45723	715.31000	 34.10	
 11.899	171.783	 63.04524	  3.43136	 52.06747	 29.41387	 20.81485	 -1.74051	 67.48848	714.75000	 34.10	
 11.890	163.610	 63.06984	  4.06533	 51.13675	 33.10263	 17.56834	 -1.66567	 67.47830	715.10999	 34.10	
 11.889	155.445	 63.11984	  5.09265	 49.70544	 36.59155	 14.60038	 -1.59622	 67.46094	714.46997	 34.10	
 11.909	147.299	 63.16287	  6.54366	 47.75955	 39.93631	 11.65527	 -1.58159	 67.45316	714.41998	 34.10	
 11.902	139.148	 63.23097	  8.38206	 45.34467	 43.00574	  9.18084	 -1.58751	 67.47166	715.15997	 34.10	
 11.894	130.867	 63.30849	 10.63996	 42.52497	 45.70691	  7.10416	 -1.55757	 67.48013	715.08002	 34.10	
 11.897	122.732	 63.37774	 13.25218	 39.40848	 48.00061	  5.49118	 -1.47276	 67.46618	714.53003	 34.10	
 11.903	114.597	 63.43750	 16.11504	 36.09636	 49.87882	  4.06186	 -1.47424	 67.46938	715.09003	 34.10	
 11.893	106.346	 63.47623	 19.26726	 32.56872	 51.22384	  3.14068	 -1.46206	 67.46146	714.58002	 34.10	
 11.892	 98.155	 63.54564	 22.61967	 28.97195	 52.04314	  2.58966	 -1.48256	 67.46410	714.46997	 34.10	
 11.900	 90.000	 63.58600	 26.13146	 25.43350	 52.30186	  2.39233	 -1.44937	 67.46690	714.54999	 34.10	
 11.892	 81.845	 63.61636	 29.66461	 22.01679	 51.92021	  2.71596	 -1.39868	 67.47549	714.46002	 34.20	
 11.893	 73.654	 63.61824	 33.33956	 18.71089	 50.95689	  3.42798	 -1.32688	 67.42453	714.79999	 34.20	
 11.903	 65.403	 63.63363	 36.81834	 15.66148	 49.50345	  4.53534	 -1.31083	 67.43681	714.53003	 34.20	
 11.897	 57.268	 63.66132	 40.04792	 12.97755	 47.54152	  6.06839	 -1.30427	 67.43243	715.23999	 34.20	
 11.894	 49.133	 63.68853	 42.98234	 10.50433	 45.17419	  7.78032	 -1.24353	 67.42339	715.19000	 34.20	
 11.902	 40.852	 63.68684	 45.70786	  8.35702	 42.36994	 10.10372	 -1.02461	 67.43620	714.47998	 34.20	
 11.909	 32.701	 63.71519	 48.02143	  6.65906	 39.28870	 12.66060	 -0.96983	 67.47484	714.53998	 34.20	
 11.889	 24.555	 63.68743	 49.71687	  5.36177	 35.89401	 15.52182	 -0.53659	 67.41480	714.48999	 34.20	
 11.890	 16.390	 63.69748	 50.98544	  4.36197	 32.37211	 18.58636	 -0.76755	 67.38240	715.19000	 34.20	
 11.899	  8.217	 63.74147	 51.80032	  3.76135	 28.76617	 22.02064	 -0.67390	 67.43919	715.21997	 34.20	
 11.900	  0.000	 63.73206	 52.00154	  3.54860	 25.06998	 25.64696	 -0.76974	 67.41579	714.91998	 34.20	
 11.899	 -8.217	 63.75438	 51.70489	  3.90033	 21.59597	 29.22081	 -0.99780	 67.44185	714.58002	 34.20	
 11.890	-16.390	 63.76887	 50.86586	  4.58271	 18.20807	 32.87544	 -1.13276	 67.45258	714.48999	 34.20	
 11.889	-24.555	 63.71748	 49.38837	  5.55084	 15.03135	 36.40646	 -1.21227	 67.43453	714.46002	 34.20	
 11.909	-32.701	 63.70122	 47.52785	  7.04946	 12.10653	 39.70666	 -1.32936	 67.46698	714.40002	 34.20	
 11.902	-40.852	 63.62917	 45.18209	  8.92433	  9.43045	 42.73281	 -1.44056	 67.45242	714.57001	 34.30	
 11.894	-49.133	 63.55917	 42.27610	 11.19189	  7.42735	 45.40106	 -1.49852	 67.45193	714.54999	 34.20	
 11.897	-57.268	 63.47585	 39.21423	 13.78410	  5.85567	 47.63293	 -1.48635	 67.39898	714.48999	 34.30	
 11.903	-65.403	 63.43043	 36.04151	 16.66105	  4.53770	 49.40629	 -1.47262	 67.42887	714.53003	 34.30	
 11.893	-73.654	 63.34569	 32.58738	 19.84294	  3.59298	 50.64352	 -1.51672	 67.41036	714.54999	 34.30	
 11.892	-81.845	 63.29869	 28.95393	 23.28338	  2.98207	 51.43129	 -1.56846	 67.45397	714.53003	 34.30	
 11.900	-90.000	 63.19390	 25.25704	 26.75426	  2.84022	 51.58181	 -1.40897	 67.44527	714.50000	 34.30	
 11.892	-98.155	 63.15797	 21.74610	 30.29803	  3.15775	 51.16713	 -1.58646	 67.46187	714.54999	 34.30	
 11.893	-106.346	 63.02135	 18.57258	 33.81193	  3.79400	 50.14574	 -1.55829	 67.39468	714.56000	 34.30	
 11.903	-114.597	 62.94975	 15.51068	 37.25899	  4.86792	 48.65811	 -1.55573	 67.41266	714.50000	 34.40	
 11.897	-122.732	 62.88467	 12.76695	 40.47127	  6.28061	 46.69349	 -1.60579	 67.42978	714.53998	 34.30	
 11.894	-130.867	 62.86110	 10.33361	 43.48507	  8.04654	 44.25619	 -1.62309	 67.43450	714.56000	 34.30	
 11.902	-139.148	 62.86179	  8.17457	 46.23307	 10.19901	 41.35757	 -1.61461	 67.42779	714.52002	 34.40	
 11.909	-147.299	 62.85632	  6.39112	 48.48159	 12.90543	 38.20282	 -1.60810	 67.43346	714.47998	 34.40	
 11.889	-155.445	 62.87509	  5.01748	 50.19528	 15.69160	 34.91036	 -1.62020	 67.42175	714.59003	 34.40	
 11.890	-163.610	 62.91354	  3.98964	 51.44292	 18.92427	 31.33337	 -1.64798	 67.43448	714.63000	 34.40	
 11.899	-171.783	 62.92591	  3.34321	 52.14548	 22.31099	 27.79355	 -1.69775	 67.42084	714.51001	 34.40	
 11.900	180.000	 62.94968	  3.13550	 52.36597	 25.78901	 24.31361	 -1.75021	 67.43670	714.53998	 34.40	
 13.600	180.000	 61.43170	 -1.00380	 54.84064	 24.52682	 23.03242	 -2.22413	 67.43243	714.59998	 34.40	
 13.608	-172.853	 61.37661	 -0.86816	 54.66290	 21.05664	 26.46408	 -2.16067	 67.41572	714.56000	 34.40	
 13.611	-165.583	 61.36734	 -0.21658	 54.06096	 17.61531	 30.06588	 -2.05607	 67.41798	714.56000	 34.40	
 13.601	-158.353	 61.35632	  0.63112	 52.94043	 14.43281	 33.67966	 -1.96468	 67.43887	714.47998	 34.40	
 13.609	-151.210	 61.29760	  1.67790	 51.37398	 11.43434	 37.03230	 -1.89626	 67.39555	714.48999	 34.50	
 13.611	-143.999	 61.28201	  3.15304	 49.36462	  8.85526	 40.36614	 -1.89382	 67.40968	714.53998	 34.50	
 13.601	-136.825	 61.26889	  4.99932	 46.93313	  6.35185	 43.40413	 -1.88453	 67.38420	714.63000	 34.50	
 13.596	-129.640	 61.31892	  7.15964	 44.19506	  4.23802	 46.14830	 -1.84645	 67.42253	714.57001	 34.50	
