FileType=PCF
NHL=14
Date=03/19/19	09:40:03
Facility=APL
Serial=16071-6
Customer=NASA
NP=6
Mach=0.150000
Calibration=1:1
CalPts=490
TstPts=95
PortNumbering=AP Standard
Units=Torr C m/s kg/m^3 deg mm 
Theta[deg]	Phi[deg]	P1[Torr]	P2[Torr]	P3[Torr]	P4[Torr]	P5[Torr]	P6[Torr]	Pt[Torr]	Ps[Abs,Torr]	Ts[C]	
  0.000	  0.000	 11.11942	  4.85348	  4.89445	  4.69654	  4.79614	  0.28131	 11.14098	715.46997	 19.00	
  1.691	128.401	 11.11525	  4.50556	  5.23464	  5.16300	  4.32878	  0.27493	 11.14710	715.56000	 19.00	
  1.692	 77.194	 11.11245	  4.98032	  4.74024	  5.26749	  4.22477	  0.29088	 11.14019	715.38000	 19.00	
  1.699	 26.182	 11.11929	  5.37500	  4.35902	  4.93884	  4.53887	  0.29485	 11.14444	715.35999	 19.00	
  1.699	-26.182	 11.11774	  5.36343	  4.36584	  4.41417	  5.05263	  0.28434	 11.14159	715.38000	 19.00	
  1.692	-77.194	 11.11531	  4.95663	  4.76313	  4.12738	  5.35055	  0.26392	 11.14373	715.39001	 19.00	
  1.691	-128.401	 11.10731	  4.48412	  5.25304	  4.25123	  5.22282	  0.25170	 11.13739	715.41998	 18.90	
  1.700	180.000	 11.11477	  4.28886	  5.47154	  4.70058	  4.77160	  0.25462	 11.14608	715.50000	 18.90	
  3.400	180.000	 11.08643	  3.69936	  6.04561	  4.65918	  4.70836	  0.20762	 11.14454	715.45001	 18.90	
  3.388	-152.325	 11.07828	  3.80850	  5.91366	  4.14472	  5.23649	  0.20491	 11.13923	715.46002	 18.90	
  3.397	-124.529	 11.08544	  4.15321	  5.51408	  3.74219	  5.68999	  0.19681	 11.14617	715.53003	 18.90	
  3.399	-96.763	 11.08944	  4.62849	  5.00098	  3.54922	  5.89852	  0.21057	 11.14403	715.53998	 18.80	
  3.394	-69.283	 11.09824	  5.18654	  4.44915	  3.60283	  5.84458	  0.22649	 11.14168	715.40997	 18.80	
  3.400	-41.398	 11.09718	  5.66408	  4.00448	  3.88335	  5.54331	  0.25270	 11.13786	715.37000	 18.80	
  3.401	-14.021	 11.11175	  5.95793	  3.76128	  4.35168	  5.05319	  0.27396	 11.14832	715.40002	 18.80	
  3.401	 14.021	 11.10458	  5.96887	  3.75172	  4.90899	  4.49780	  0.28617	 11.13702	715.34998	 18.80	
  3.400	 41.398	 11.11270	  5.71672	  3.97804	  5.40459	  4.02571	  0.29067	 11.14364	715.33002	 18.80	
  3.394	 69.283	 11.10707	  5.23504	  4.42576	  5.75772	  3.73370	  0.26322	 11.14341	715.40997	 18.80	
  3.399	 96.763	 11.10243	  4.69025	  4.95070	  5.87569	  3.63476	  0.26714	 11.14259	715.34003	 18.70	
  3.397	124.529	 11.09481	  4.19827	  5.46604	  5.65574	  3.79936	  0.22772	 11.14201	715.39001	 18.70	
  3.388	152.325	 11.08514	  3.84191	  5.88262	  5.20184	  4.19045	  0.21648	 11.13598	715.42999	 18.70	
  5.099	161.165	 11.02734	  3.17833	  6.47266	  5.17234	  4.04571	  0.13734	 11.13994	715.45001	 18.70	
  5.109	142.013	 11.03628	  3.43878	  6.16337	  5.72350	  3.56614	  0.15024	 11.14124	715.39001	 18.70	
  5.095	123.033	 11.04281	  3.84273	  5.69433	  6.13782	  3.23609	  0.16957	 11.13969	715.40002	 18.70	
  5.105	104.191	 11.04795	  4.35141	  5.13604	  6.38570	  3.04960	  0.19319	 11.13636	715.34003	 18.70	
  5.093	 85.207	 11.06154	  4.90506	  4.58424	  6.41610	  3.03862	  0.21474	 11.14016	715.51001	 18.50	
  5.104	 66.290	 11.05940	  5.46736	  4.04019	  6.24084	  3.17511	  0.21818	 11.13486	715.33002	 18.50	
  5.094	 47.331	 11.05912	  5.97375	  3.59735	  5.89072	  3.46655	  0.24228	 11.13347	715.41998	 18.50	
  5.089	 28.397	 11.06058	  6.34081	  3.29281	  5.41060	  3.89913	  0.25809	 11.13556	715.46002	 18.50	
  5.096	  9.576	 11.06001	  6.51091	  3.15025	  4.84681	  4.41749	  0.22723	 11.13606	715.44000	 18.40	
  5.096	 -9.576	 11.06385	  6.51484	  3.14584	  4.26987	  4.99747	  0.24070	 11.14279	715.47998	 18.50	
  5.089	-28.397	 11.04931	  6.27504	  3.32358	  3.75557	  5.52895	  0.19802	 11.13187	715.40997	 18.50	
  5.094	-47.331	 11.03912	  5.88783	  3.64760	  3.32743	  6.01738	  0.18641	 11.12463	715.34003	 18.40	
  5.104	-66.290	 11.03738	  5.38620	  4.09221	  3.04076	  6.34505	  0.16281	 11.13305	715.50000	 18.40	
  5.093	-85.207	 11.02560	  4.80490	  4.64117	  2.91996	  6.47577	  0.13449	 11.12962	715.42999	 18.40	
  5.105	-104.191	 11.02531	  4.24608	  5.22527	  2.96027	  6.41374	  0.12609	 11.13979	715.39001	 18.40	
  5.095	-123.033	 11.01207	  3.76165	  5.75307	  3.16768	  6.14567	  0.12098	 11.13433	715.45001	 18.40	
  5.109	-142.013	 11.01371	  3.37786	  6.21151	  3.53396	  5.70821	  0.11137	 11.13545	715.40997	 18.40	
  5.099	-161.165	 11.00699	  3.14629	  6.49165	  4.02245	  5.15830	  0.11554	 11.13231	715.41998	 18.40	
  5.100	180.000	 11.02069	  3.08145	  6.58599	  4.58627	  4.59441	  0.11978	 11.13891	715.46997	 18.40	
  6.800	180.000	 10.91653	  2.42716	  7.13411	  4.48992	  4.46205	  0.03316	 11.13625	715.44000	 18.40	
  6.796	-166.229	 10.90914	  2.47712	  7.07043	  3.94391	  5.01481	  0.03109	 11.13371	715.52002	 18.40	
  6.808	-152.311	 10.90401	  2.64086	  6.85649	  3.41399	  5.58877	  0.02614	 11.12983	715.41998	 18.40	
  6.795	-138.383	 10.91101	  2.91546	  6.51511	  2.97514	  6.10884	  0.01826	 11.13919	715.40997	 18.40	
  6.792	-124.591	 10.91473	  3.28583	  6.07055	  2.63603	  6.52553	  0.02095	 11.13948	715.45001	 18.40	
  6.787	-110.754	 10.91808	  3.74711	  5.54353	  2.41146	  6.82452	  0.02586	 11.13739	715.53998	 18.40	
  6.800	-96.985	 10.92212	  4.25750	  4.98676	  2.28677	  6.99637	  0.03205	 11.13830	715.47998	 18.40	
  6.800	-83.015	 10.93254	  4.82416	  4.41916	  2.29080	  7.01450	  0.04262	 11.13651	715.44000	 18.40	
  6.787	-69.246	 10.94458	  5.37832	  3.89453	  2.40701	  6.88293	  0.06213	 11.13319	715.45001	 18.40	
  6.792	-55.409	 10.95026	  5.91385	  3.41651	  2.62185	  6.61675	  0.08226	 11.13351	715.46002	 18.40	
  6.795	-41.617	 10.95765	  6.37437	  3.02712	  2.94729	  6.22337	  0.09958	 11.13530	715.41998	 18.40	
  6.808	-27.689	 10.96572	  6.74107	  2.73659	  3.37214	  5.72757	  0.12198	 11.13356	715.51001	 18.40	
  6.796	-13.771	 10.96861	  6.97500	  2.55348	  3.87850	  5.16803	  0.14529	 11.13045	715.42999	 18.40	
  6.800	  0.000	 10.97896	  7.06847	  2.48438	  4.42163	  4.61009	  0.15572	 11.13389	715.47998	 18.40	
  6.796	 13.771	 10.97380	  7.00424	  2.53075	  4.99511	  4.05179	  0.16598	 11.12934	715.35999	 18.40	
  6.808	 27.689	 10.97688	  6.80482	  2.68684	  5.57052	  3.53199	  0.17016	 11.13318	715.51001	 18.40	
  6.795	 41.617	 10.97452	  6.45992	  2.96276	  6.07033	  3.10139	  0.15951	 11.12664	715.40997	 18.30	
  6.792	 55.409	 10.97987	  6.02336	  3.33644	  6.49135	  2.76279	  0.15329	 11.13108	715.59003	 18.30	
  6.787	 69.246	 10.97748	  5.49912	  3.79981	  6.79548	  2.52510	  0.14979	 11.13070	715.56000	 18.30	
  6.800	 83.015	 10.96878	  4.94181	  4.31339	  6.95751	  2.38851	  0.12966	 11.12904	715.54999	 18.40	
  6.800	 96.985	 10.95628	  4.37620	  4.87638	  6.96867	  2.36810	  0.11490	 11.11924	715.48999	 18.30	
  6.787	110.754	 10.95143	  3.84459	  5.44165	  6.82658	  2.46843	  0.10800	 11.12352	715.53003	 18.30	
  6.792	124.591	 10.93593	  3.36686	  5.97216	  6.53912	  2.67640	  0.08606	 11.11906	715.44000	 18.30	
  6.795	138.383	 10.93354	  2.98155	  6.43401	  6.13919	  2.99314	  0.06853	 11.12492	715.51001	 18.30	
  6.808	152.311	 10.91760	  2.68060	  6.80042	  5.64747	  3.39778	  0.06025	 11.12405	715.56000	 18.30	
  6.796	166.229	 10.91271	  2.49785	  7.03559	  5.07765	  3.90190	  0.04316	 11.12328	715.51001	 18.30	
  8.491	168.704	 10.77132	  1.82015	  7.56578	  4.97116	  3.72677	 -0.05301	 11.12284	715.52002	 18.30	
  8.502	157.493	 10.77440	  1.96336	  7.36887	  5.55464	  3.19887	 -0.03944	 11.11807	715.59003	 18.30	
  8.494	146.194	 10.78650	  2.21700	  7.04893	  6.09782	  2.75281	 -0.03011	 11.11937	715.58002	 18.30	
  8.495	135.039	 10.79743	  2.54232	  6.64104	  6.58210	  2.37138	 -0.02326	 11.12110	715.53998	 18.30	
  8.487	123.723	 10.81190	  2.95768	  6.14726	  6.98590	  2.06400	 -0.00914	 11.12295	715.64001	 18.30	
  8.492	112.575	 10.81888	  3.42534	  5.60829	  7.28125	  1.84720	  0.00885	 11.12064	715.56000	 18.30	
  8.510	101.220	 10.82462	  3.96140	  5.02315	  7.47140	  1.71305	  0.00964	 11.11896	715.57001	 18.30	
  8.500	 90.000	 10.82946	  4.52975	  4.44353	  7.51603	  1.68812	  0.01953	 11.11228	715.51001	 18.30	
  8.510	 78.780	 10.83354	  5.10291	  3.88570	  7.44525	  1.74369	  0.03647	 11.11433	715.59003	 18.30	
  8.492	 67.425	 10.84976	  5.68872	  3.36035	  7.24392	  1.90733	  0.05615	 11.12618	715.63000	 18.30	
  8.487	 56.277	 10.84633	  6.21329	  2.89896	  6.92316	  2.15268	  0.06145	 11.11857	715.66998	 18.30	
  8.495	 44.961	 10.85107	  6.68953	  2.50938	  6.50533	  2.48700	  0.06895	 11.12223	715.59003	 18.30	
  8.494	 33.806	 10.85078	  7.07670	  2.20302	  6.00844	  2.89395	  0.08272	 11.12134	715.57001	 18.30	
  8.502	 22.507	 10.83901	  7.36457	  1.97629	  5.45718	  3.36231	  0.09006	 11.11459	715.67999	 18.30	
  8.491	 11.296	 10.83985	  7.53236	  1.85142	  4.86729	  3.90378	  0.07934	 11.11648	715.60999	 18.30	
  8.500	  0.000	 10.84153	  7.58583	  1.81387	  4.27142	  4.48135	  0.06350	 11.11807	715.59998	 18.30	
  8.491	-11.296	 10.83690	  7.50562	  1.87318	  3.70993	  5.06057	  0.05594	 11.11803	715.54999	 18.30	
  8.502	-22.507	 10.82901	  7.30482	  2.01798	  3.17729	  5.63971	  0.03748	 11.11778	715.53998	 18.30	
  8.494	-33.806	 10.81794	  6.97973	  2.26407	  2.70236	  6.18440	  0.01223	 11.11502	715.53998	 18.30	
  8.495	-44.961	 10.80675	  6.56410	  2.59258	  2.31682	  6.65146	 -0.01338	 11.11416	715.52002	 18.30	
  8.487	-56.277	 10.80372	  6.07328	  3.00018	  2.00860	  7.04266	 -0.02409	 11.12144	715.67999	 18.30	
  8.492	-67.425	 10.78464	  5.53242	  3.46558	  1.77545	  7.32946	 -0.04144	 11.11623	715.58002	 18.30	
  8.510	-78.780	 10.77735	  4.95234	  4.00163	  1.63105	  7.50760	 -0.06705	 11.12045	715.65997	 18.30	
  8.500	-90.000	 10.76351	  4.37636	  4.56586	  1.59160	  7.54271	 -0.07476	 11.11721	715.47998	 18.30	
  8.510	-101.220	 10.75274	  3.81906	  5.14691	  1.64176	  7.46001	 -0.08106	 11.11566	715.56000	 18.30	
  8.492	-112.575	 10.74352	  3.29323	  5.72150	  1.79420	  7.24070	 -0.07944	 11.10944	715.51001	 18.30	
  8.487	-123.723	 10.74153	  2.84448	  6.25717	  2.03301	  6.92493	 -0.08258	 11.11451	715.56000	 18.30	
  8.495	-135.039	 10.74437	  2.45791	  6.73324	  2.36092	  6.50355	 -0.08200	 11.11884	715.47998	 18.30	
  8.494	-146.194	 10.74278	  2.15247	  7.12310	  2.76047	  6.01725	 -0.07601	 11.11961	715.53003	 18.30	
  8.502	-157.493	 10.74850	  1.92649	  7.41994	  3.25075	  5.45831	 -0.06871	 11.12148	715.56000	 18.30	
  8.491	-168.704	 10.74849	  1.80009	  7.59028	  3.78874	  4.87036	 -0.06683	 11.11344	715.51001	 18.30	
  8.500	180.000	 10.75288	  1.75463	  7.64143	  4.35972	  4.29478	 -0.06466	 11.11672	715.52002	 18.30	
 10.200	180.000	 10.57227	  1.11499	  8.12479	  4.21266	  4.11749	 -0.16628	 11.11624	715.47998	 18.30	
 10.191	-170.497	 10.56646	  1.14696	  8.08209	  3.63872	  4.69611	 -0.17017	 11.11353	715.60999	 18.30	
 10.210	-161.034	 10.56056	  1.24296	  7.94190	  3.07955	  5.29449	 -0.16823	 11.11496	715.51001	 18.30	
 10.194	-151.526	 10.55187	  1.42364	  7.68570	  2.56871	  5.87192	 -0.17288	 11.11363	715.48999	 18.30	
 10.190	-142.105	 10.55434	  1.68053	  7.34877	  2.12995	  6.40642	 -0.17909	 11.11885	715.51001	 18.30	
 10.215	-132.646	 10.55025	  1.99782	  6.92427	  1.73853	  6.89404	 -0.18927	 11.11644	715.46997	 18.30	
 10.203	-123.092	 10.54587	  2.39895	  6.41834	  1.41879	  7.31815	 -0.18505	 11.11372	715.46002	 18.30	
 10.192	-113.678	 10.55614	  2.84719	  5.88578	  1.18596	  7.64822	 -0.17915	 11.12127	715.62000	 18.30	
 10.208	-104.249	 10.56217	  3.35431	  5.31005	  1.01617	  7.88803	 -0.18247	 11.11583	715.53003	 18.30	
 10.210	-94.801	 10.57125	  3.90280	  4.71842	  0.93058	  8.02048	 -0.18484	 11.11930	715.50000	 18.30	
 10.210	-85.199	 10.57943	  4.48806	  4.12408	  0.92176	  8.04239	 -0.17787	 11.11521	715.47998	 18.30	
 10.208	-75.751	 10.59653	  5.07494	  3.56496	  0.99302	  7.96318	 -0.16487	 11.11936	715.46002	 18.30	
 10.192	-66.322	 10.60644	  5.65464	  3.04072	  1.14425	  7.76465	 -0.14994	 11.11678	715.53998	 18.30	
 10.203	-56.908	 10.61420	  6.20687	  2.57018	  1.36814	  7.46450	 -0.13908	 11.11290	715.44000	 18.30	
 10.215	-47.354	 10.62981	  6.72157	  2.15341	  1.67063	  7.07391	 -0.13297	 11.11568	715.46002	 18.30	
 10.190	-37.895	 10.64254	  7.17268	  1.80369	  2.04811	  6.60655	 -0.11035	 11.11423	715.60999	 18.30	
 10.194	-28.474	 10.64865	  7.53831	  1.52229	  2.47062	  6.08729	 -0.08229	 11.11179	715.64001	 18.30	
 10.210	-18.966	 10.65580	  7.82261	  1.31654	  2.97221	  5.51207	 -0.06303	 11.11099	715.57001	 18.30	
 10.191	 -9.503	 10.66485	  7.99563	  1.19955	  3.52236	  4.91932	 -0.04843	 11.11470	715.47998	 18.30	
 10.200	  0.000	 10.66833	  8.07075	  1.15005	  4.09029	  4.33601	 -0.03417	 11.11434	715.46002	 18.30	
 10.191	  9.503	 10.67443	  8.03554	  1.18082	  4.69833	  3.74990	 -0.01976	 11.11719	715.51001	 18.30	
 10.210	 18.966	 10.67201	  7.89041	  1.28177	  5.30189	  3.19490	 -0.00567	 11.11407	715.44000	 18.30	
 10.194	 28.474	 10.67394	  7.63537	  1.46935	  5.87513	  2.69983	 -0.00498	 11.10860	715.52002	 18.30	
 10.190	 37.895	 10.68437	  7.30406	  1.73007	  6.42122	  2.25431	 -0.02188	 11.11828	715.44000	 18.30	
 10.215	 47.354	 10.68802	  6.87669	  2.05753	  6.92343	  1.85683	 -0.04063	 11.11961	715.45001	 18.30	
 10.203	 56.908	 10.68041	  6.37788	  2.45581	  7.33109	  1.53736	 -0.05264	 11.11296	715.51001	 18.40	
 10.192	 66.322	 10.68719	  5.84530	  2.92078	  7.64980	  1.30821	 -0.05102	 11.12271	715.57001	 18.40	
 10.208	 75.751	 10.68283	  5.27217	  3.43172	  7.87872	  1.14164	 -0.06208	 11.12179	715.59003	 18.40	
 10.210	 85.199	 10.67201	  4.67931	  3.98498	  7.99572	  1.05112	 -0.07997	 11.11377	715.47998	 18.40	
 10.210	 94.801	 10.67181	  4.09366	  4.57087	  8.00828	  1.04342	 -0.09341	 11.12360	715.53998	 18.40	
 10.208	104.249	 10.65856	  3.53120	  5.15627	  7.90793	  1.10264	 -0.09579	 11.11671	715.66998	 18.40	
 10.192	113.678	 10.65822	  3.00879	  5.74028	  7.70915	  1.24279	 -0.09779	 11.12508	715.35999	 18.40	
 10.203	123.092	 10.63101	  2.53118	  6.27716	  7.40312	  1.44131	 -0.11295	 11.11056	715.46002	 18.40	
 10.215	132.646	 10.62395	  2.10277	  6.79903	  7.01078	  1.72531	 -0.13620	 11.11940	715.44000	 18.40	
 10.190	142.105	 10.61453	  1.76080	  7.24441	  6.52897	  2.09468	 -0.13621	 11.11795	715.59003	 18.40	
 10.194	151.526	 10.60722	  1.48300	  7.61312	  5.99850	  2.51847	 -0.13713	 11.12227	715.58002	 18.40	
 10.210	161.034	 10.58318	  1.27740	  7.88241	  5.42518	  2.99326	 -0.14159	 11.11003	715.50000	 18.40	
 10.191	170.497	 10.58416	  1.15974	  8.05683	  4.82793	  3.53445	 -0.15675	 11.11538	715.45001	 18.40	
 11.899	171.783	 10.36437	  0.52059	  8.51346	  4.64832	  3.33009	 -0.25679	 11.11575	715.52002	 18.40	
 11.890	163.610	 10.37884	  0.62750	  8.36369	  5.25615	  2.78848	 -0.24234	 11.11985	715.59998	 18.40	
 11.889	155.445	 10.38950	  0.79248	  8.11871	  5.83682	  2.29990	 -0.24187	 11.12024	715.46002	 18.40	
 11.909	147.299	 10.39755	  1.02008	  7.79540	  6.40355	  1.83935	 -0.24550	 11.11665	715.53998	 18.40	
 11.902	139.148	 10.41032	  1.31213	  7.39685	  6.92749	  1.44470	 -0.24350	 11.11960	715.47998	 18.40	
 11.894	130.867	 10.42010	  1.67531	  6.92156	  7.38781	  1.11452	 -0.23512	 11.11684	715.47998	 18.40	
 11.897	122.732	 10.43240	  2.09669	  6.40265	  7.77454	  0.85774	 -0.22043	 11.11766	715.35999	 18.40	
 11.903	114.597	 10.44222	  2.56308	  5.84191	  8.08503	  0.64109	 -0.20675	 11.11703	715.48999	 18.40	
 11.893	106.346	 10.45618	  3.08552	  5.25972	  8.31336	  0.50231	 -0.20970	 11.11711	715.53003	 18.40	
 11.892	 98.155	 10.46045	  3.64170	  4.65668	  8.44304	  0.41974	 -0.21247	 11.11156	715.48999	 18.40	
 11.900	 90.000	 10.46360	  4.21254	  4.07123	  8.48089	  0.39342	 -0.20865	 11.10906	715.47998	 18.40	
 11.892	 81.845	 10.46949	  4.79866	  3.50963	  8.42292	  0.43919	 -0.19297	 11.11182	715.45001	 18.40	
 11.893	 73.654	 10.47942	  5.40159	  2.96246	  8.27162	  0.54713	 -0.17616	 11.11651	715.59003	 18.40	
 11.903	 65.403	 10.48434	  5.97905	  2.45928	  8.02668	  0.71774	 -0.16698	 11.11832	715.47998	 18.40	
 11.897	 57.268	 10.48013	  6.52173	  2.00643	  7.69059	  0.95719	 -0.16187	 11.11050	715.46002	 18.40	
 11.894	 49.133	 10.48304	  7.02640	  1.60648	  7.28942	  1.24831	 -0.15399	 11.11781	715.44000	 18.40	
 11.902	 40.852	 10.47700	  7.48317	  1.25670	  6.80797	  1.60170	 -0.13901	 11.11383	715.50000	 18.40	
 11.909	 32.701	 10.47402	  7.86027	  0.97663	  6.27516	  2.02912	 -0.11274	 11.11439	715.48999	 18.40	
 11.889	 24.555	 10.47335	  8.15362	  0.77371	  5.70044	  2.50474	 -0.09843	 11.11372	715.46002	 18.40	
 11.890	 16.390	 10.47241	  8.36799	  0.62124	  5.11882	  3.01314	 -0.11109	 11.11674	715.37000	 18.40	
 11.899	  8.217	 10.46999	  8.50022	  0.53150	  4.50764	  3.57072	 -0.12519	 11.11909	715.46997	 18.40	
 11.900	  0.000	 10.46524	  8.52810	  0.50729	  3.90180	  4.16082	 -0.14354	 11.11649	715.47998	 18.40	
 11.899	 -8.217	 10.45721	  8.45824	  0.54792	  3.32806	  4.74720	 -0.14986	 11.11154	715.51001	 18.50	
 11.890	-16.390	 10.45299	  8.30167	  0.65236	  2.77237	  5.34538	 -0.16428	 11.11176	715.53003	 18.50	
 11.889	-24.555	 10.44583	  8.05398	  0.82200	  2.25851	  5.93849	 -0.18081	 11.11152	715.45001	 18.50	
 11.909	-32.701	 10.43708	  7.73087	  1.04367	  1.80104	  6.48060	 -0.20751	 11.11376	715.51001	 18.50	
 11.902	-40.852	 10.42612	  7.32449	  1.34421	  1.39327	  6.99767	 -0.23094	 11.11286	715.42999	 18.50	
 11.894	-49.133	 10.41670	  6.84608	  1.71747	  1.04188	  7.46195	 -0.24209	 11.11828	715.45001	 18.50	
 11.897	-57.268	 10.39523	  6.31768	  2.13224	  0.75747	  7.84354	 -0.23906	 11.11046	715.34003	 18.50	
 11.903	-65.403	 10.38451	  5.76695	  2.59305	  0.54421	  8.14036	 -0.23923	 11.11331	715.40997	 18.50	
 11.893	-73.654	 10.37940	  5.18095	  3.11557	  0.40172	  8.35025	 -0.24861	 11.11640	715.46997	 18.50	
 11.892	-81.845	 10.36833	  4.58247	  3.67815	  0.31589	  8.46523	 -0.25830	 11.11228	715.51001	 18.50	
 11.900	-90.000	 10.34928	  3.99669	  4.24836	  0.28556	  8.48729	 -0.25868	 11.10365	715.46002	 18.50	
 11.892	-98.155	 10.34549	  3.43222	  4.83564	  0.32685	  8.42139	 -0.25754	 11.11399	715.53003	 18.50	
 11.893	-106.346	 10.33836	  2.89047	  5.43614	  0.43351	  8.25867	 -0.25657	 11.11713	715.50000	 18.50	
 11.903	-114.597	 10.32730	  2.38810	  6.01583	  0.59567	  8.00320	 -0.25383	 11.11523	715.41998	 18.50	
 11.897	-122.732	 10.32291	  1.94120	  6.56268	  0.82353	  7.67107	 -0.26417	 11.11653	715.44000	 18.50	
 11.894	-130.867	 10.31251	  1.54934	  7.06174	  1.11964	  7.24826	 -0.26804	 11.10886	715.40997	 18.50	
 11.902	-139.148	 10.31931	  1.20958	  7.52414	  1.49274	  6.76509	 -0.26511	 11.11309	715.52002	 18.50	
 11.909	-147.299	 10.32193	  0.93747	  7.90346	  1.90781	  6.24087	 -0.26259	 11.11430	715.45001	 18.50	
 11.889	-155.445	 10.32512	  0.73593	  8.19255	  2.37419	  5.68127	 -0.25804	 11.11102	715.40997	 18.50	
 11.890	-163.610	 10.34151	  0.59236	  8.41540	  2.90059	  5.09184	 -0.25851	 11.11588	715.41998	 18.50	
 11.899	-171.783	 10.34472	  0.50658	  8.54169	  3.46218	  4.49139	 -0.26754	 11.11361	715.46997	 18.50	
 11.900	180.000	 10.35237	  0.48034	  8.57532	  4.03929	  3.90777	 -0.26616	 11.11328	715.41998	 18.50	
 13.600	180.000	 10.09138	 -0.15010	  8.99988	  3.83254	  3.67521	 -0.35190	 11.11266	715.51001	 18.50	
 13.608	-172.853	 10.07950	 -0.12800	  8.97237	  3.26016	  4.25301	 -0.34981	 11.10712	715.50000	 18.50	
 13.611	-165.583	 10.06999	 -0.06351	  8.86091	  2.68740	  4.86262	 -0.33951	 11.10969	715.53998	 18.50	
 13.601	-158.353	 10.07004	  0.06101	  8.66962	  2.15207	  5.47553	 -0.32278	 11.11280	715.33002	 18.50	
 13.609	-151.210	 10.05769	  0.23872	  8.40295	  1.68183	  6.03826	 -0.32137	 11.10896	715.40997	 18.50	
 13.611	-143.999	 10.05156	  0.47270	  8.05668	  1.23982	  6.59539	 -0.31846	 11.10980	715.48999	 18.50	
 13.601	-136.825	 10.04801	  0.75195	  7.64670	  0.84653	  7.10970	 -0.31492	 11.10848	715.40997	 18.50	
 13.596	-129.640	 10.05417	  1.08861	  7.18736	  0.51482	  7.57891	 -0.30676	 11.11364	715.50000	 18.50	
