FileType=PCF
NHL=14
Date=03/19/19	10:53:46
Facility=APL
Serial=16071-6
Customer=NASA
NP=6
Mach=0.300000
Calibration=1:1
CalPts=490
TstPts=95
PortNumbering=AP Standard
Units=Torr C m/s kg/m^3 deg mm 
Theta[deg]	Phi[deg]	P1[Torr]	P2[Torr]	P3[Torr]	P4[Torr]	P5[Torr]	P6[Torr]	Pt[Torr]	Ps[Abs,Torr]	Ts[C]	
  0.000	  0.000	 42.92618	 18.72255	 19.11194	 18.71951	 18.46803	  1.04243	 42.98444	714.97998	 24.90	
  1.691	128.401	 42.91095	 17.24641	 20.45713	 20.57512	 16.54803	  1.00517	 42.98267	715.01001	 24.90	
  1.692	 77.194	 43.04703	 19.28293	 18.51015	 21.04719	 16.17907	  1.03647	 43.08109	714.97998	 25.00	
  1.699	 26.182	 43.06614	 20.94422	 16.98903	 19.70771	 17.47509	  1.06132	 43.08814	715.01001	 25.00	
  1.699	-26.182	 43.05234	 20.91344	 17.03619	 17.64220	 19.50436	  1.02750	 43.07441	715.00000	 25.00	
  1.692	-77.194	 43.00949	 19.18967	 18.61738	 16.49780	 20.69582	  0.95492	 43.06283	714.92999	 25.00	
  1.691	-128.401	 43.02452	 17.22907	 20.58785	 16.95243	 20.19862	  0.90121	 43.08605	714.97998	 25.10	
  1.700	180.000	 43.04436	 16.35971	 21.47842	 18.73518	 18.37820	  0.91294	 43.10674	715.08002	 25.10	
  3.400	180.000	 42.93679	 13.94488	 23.74964	 18.54772	 18.14042	  0.74603	 43.11634	715.03003	 25.10	
  3.388	-152.325	 42.92495	 14.41230	 23.24508	 16.51128	 20.27353	  0.73342	 43.09507	715.00000	 25.20	
  3.397	-124.529	 42.94417	 15.82525	 21.74896	 14.86492	 22.06979	  0.74718	 43.11193	715.03003	 25.20	
  3.399	-96.763	 42.97554	 17.90376	 19.63266	 14.07306	 22.96788	  0.78183	 43.10580	714.96997	 25.20	
  3.394	-69.283	 43.01043	 20.19699	 17.42108	 14.27547	 22.76795	  0.83372	 43.09739	715.09998	 25.20	
  3.400	-41.398	 43.09409	 22.20403	 15.58478	 15.47216	 21.48858	  0.89983	 43.15118	715.06000	 25.20	
  3.401	-14.021	 43.09617	 23.31846	 14.51489	 17.31171	 19.50687	  0.96450	 43.14085	715.03998	 25.30	
  3.401	 14.021	 43.08322	 23.35319	 14.44883	 19.53681	 17.25173	  1.00162	 43.13398	715.04999	 25.30	
  3.400	 41.398	 43.07608	 22.31297	 15.39340	 21.66301	 15.28601	  1.02601	 43.13789	715.09998	 25.30	
  3.394	 69.283	 43.04940	 20.33723	 17.18156	 23.07940	 14.00136	  0.98613	 43.13136	715.09003	 25.40	
  3.399	 96.763	 43.01612	 18.07093	 19.36533	 23.42161	 13.67624	  0.94356	 43.12209	715.09998	 25.40	
  3.397	124.529	 42.96389	 15.96034	 21.52566	 22.58621	 14.39497	  0.87255	 43.11576	715.01001	 25.40	
  3.388	152.325	 42.93307	 14.52910	 23.10836	 20.79276	 16.02257	  0.81897	 43.10651	715.03003	 25.40	
  5.099	161.165	 42.67952	 11.97597	 25.41545	 20.56452	 15.54303	  0.56914	 43.09664	715.13000	 25.40	
  5.109	142.013	 42.65945	 12.99419	 24.20801	 22.78341	 13.52037	  0.54640	 43.06223	715.06000	 25.50	
  5.095	123.033	 42.69941	 14.58032	 22.40784	 24.41511	 12.14393	  0.71787	 43.05141	715.09998	 25.50	
  5.105	104.191	 42.72294	 16.62564	 20.21756	 25.37106	 11.37535	  0.79911	 43.04931	715.10999	 25.50	
  5.093	 85.207	 42.75613	 18.94234	 17.90363	 25.51023	 11.27826	  0.84995	 43.04301	715.21997	 25.50	
  5.104	 66.290	 42.79668	 21.26941	 15.74487	 24.88559	 11.87780	  0.89909	 43.06469	715.07001	 25.50	
  5.094	 47.331	 42.81289	 23.30196	 13.89756	 23.48686	 13.06375	  0.91762	 43.05196	715.15997	 25.60	
  5.089	 28.397	 42.81895	 24.73764	 12.63137	 21.51055	 14.82850	  0.93261	 43.05872	715.15997	 25.60	
  5.096	  9.576	 42.81791	 25.47004	 11.99218	 19.22020	 16.97691	  0.90728	 43.05302	715.19000	 25.60	
  5.096	 -9.576	 42.82193	 25.42582	 12.06062	 16.90855	 19.29105	  0.87993	 43.05254	715.13000	 25.60	
  5.089	-28.397	 42.80643	 24.62101	 12.77624	 14.83243	 21.49032	  0.81157	 43.04972	715.19000	 25.70	
  5.094	-47.331	 42.74979	 23.12274	 14.12653	 13.13097	 23.37234	  0.73153	 43.02797	715.08002	 25.70	
  5.104	-66.290	 42.71132	 21.08825	 16.01319	 11.99729	 24.67898	  0.65870	 43.02286	714.96002	 25.70	
  5.093	-85.207	 42.70185	 18.77932	 18.24275	 11.55728	 25.19876	  0.57987	 43.04610	715.08002	 25.70	
  5.105	-104.191	 42.66507	 16.37286	 20.56048	 11.78434	 24.93089	  0.53533	 43.06069	715.10999	 25.70	
  5.095	-123.033	 42.63372	 14.41367	 22.69454	 12.65471	 23.86698	  0.51752	 43.06756	715.12000	 25.80	
  5.109	-142.013	 42.59178	 12.83895	 24.44130	 14.11144	 22.14735	  0.51436	 43.04356	715.12000	 25.80	
  5.099	-161.165	 42.58080	 11.86502	 25.51933	 16.10958	 19.98104	  0.52178	 43.04585	715.04999	 25.80	
  5.100	180.000	 42.58781	 11.58063	 25.82260	 18.25371	 17.76923	  0.54039	 43.03653	715.09003	 25.80	
  6.800	180.000	 42.20984	  9.17351	 27.84325	 17.90636	 17.27046	  0.22319	 43.06465	715.14001	 25.80	
  6.796	-166.229	 42.17112	  9.35878	 27.61682	 15.75998	 19.43764	  0.16997	 43.02572	715.02002	 25.90	
  6.808	-152.311	 42.19199	 10.06141	 26.85702	 13.73358	 21.64894	  0.20486	 43.04172	715.14001	 25.90	
  6.795	-138.383	 42.17408	 11.24407	 25.54533	 11.99308	 23.64692	  0.20954	 43.01318	715.17999	 25.90	
  6.792	-124.591	 42.22023	 12.75021	 23.84396	 10.63379	 25.32196	  0.10633	 43.05142	715.16998	 25.90	
  6.787	-110.754	 42.24428	 14.45757	 21.80183	  9.75392	 26.47300	  0.22619	 43.03528	715.14001	 25.90	
  6.800	-96.985	 42.26075	 16.52837	 19.56758	  9.21899	 27.13427	  0.23878	 43.01485	715.15997	 25.90	
  6.800	-83.015	 42.30986	 18.84106	 17.31468	  9.17517	 27.20789	  0.29510	 43.01968	715.13000	 25.90	
  6.787	-69.246	 42.35885	 21.17371	 15.19580	  9.60437	 26.68679	  0.34427	 43.01851	715.09998	 26.00	
  6.792	-55.409	 42.39987	 23.26510	 13.27014	 10.45639	 25.66691	  0.41954	 43.03037	715.14001	 26.00	
  6.795	-41.617	 42.42289	 24.98756	 11.68270	 11.76154	 24.12000	  0.40828	 43.02133	715.03003	 26.00	
  6.808	-27.689	 42.43339	 26.35279	 10.47886	 13.45618	 22.14577	  0.57434	 42.99710	715.07001	 26.00	
  6.796	-13.771	 42.44361	 27.21048	  9.76837	 15.46613	 19.98035	  0.66624	 42.99685	715.09003	 26.00	
  6.800	  0.000	 42.41365	 27.51693	  9.48762	 17.56342	 17.80366	  0.72466	 42.96788	715.20001	 26.00	
  6.796	 13.771	 42.41491	 27.27405	  9.69130	 19.85752	 15.59582	  0.61343	 42.97738	715.19000	 26.10	
  6.808	 27.689	 42.41967	 26.53283	 10.31371	 22.08643	 13.53457	  0.74747	 42.97805	715.16998	 26.10	
  6.795	 41.617	 42.40053	 25.21516	 11.42367	 24.05060	 11.80086	  0.71798	 42.98425	715.15997	 26.10	
  6.792	 55.409	 42.41165	 23.50520	 12.94008	 25.70210	 10.41545	  0.69693	 42.98498	715.19000	 26.10	
  6.787	 69.246	 42.37524	 21.39056	 14.81732	 26.86827	  9.42570	  0.67253	 42.97745	715.21002	 26.10	
  6.800	 83.015	 42.38097	 19.15159	 16.88725	 27.55742	  8.84153	  0.61190	 43.00851	715.15002	 26.10	
  6.800	 96.985	 42.35793	 16.87765	 19.15255	 27.59079	  8.76843	  0.57123	 43.00776	715.16998	 26.20	
  6.787	110.754	 42.32034	 14.80365	 21.35673	 27.02114	  9.19299	  0.51981	 43.00845	715.06000	 26.20	
  6.792	124.591	 42.26871	 12.91449	 23.44090	 25.90508	 10.06765	  0.47025	 43.00574	715.15002	 26.20	
  6.795	138.383	 42.22624	 11.35204	 25.23055	 24.33043	 11.36793	  0.36880	 43.01350	715.15997	 26.20	
  6.808	152.311	 42.14577	 10.15503	 26.58426	 22.37426	 13.00998	  0.35593	 42.96852	715.13000	 26.20	
  6.796	166.229	 42.13599	  9.45497	 27.45163	 20.10308	 15.05066	  0.17385	 42.98417	715.19000	 26.30	
  8.491	168.704	 41.63354	  6.90952	 29.46657	 19.71700	 14.40045	 -0.29044	 43.00972	715.15002	 26.30	
  8.502	157.493	 41.67947	  7.45044	 28.76788	 22.00230	 12.31569	 -0.23844	 43.03592	715.28998	 26.30	
  8.494	146.194	 41.74099	  8.42621	 27.55833	 24.12364	 10.50603	 -0.19069	 43.04994	715.16998	 26.30	
  8.495	135.039	 41.76975	  9.74720	 25.96740	 26.00639	  8.92597	 -0.15519	 43.04085	715.20001	 26.30	
  8.487	123.723	 41.80390	 11.39226	 24.08935	 27.55813	  7.71681	 -0.11405	 43.04984	715.19000	 26.30	
  8.492	112.575	 41.84372	 13.25640	 21.99606	 28.71016	  6.84781	 -0.00101	 43.04660	715.17999	 26.40	
  8.510	101.220	 41.89940	 15.38875	 19.72395	 29.44119	  6.33591	  0.24683	 43.06746	715.22998	 26.40	
  8.500	 90.000	 41.89750	 17.59192	 17.44872	 29.60281	  6.24621	  0.27107	 43.02244	715.17999	 26.40	
  8.510	 78.780	 41.92012	 19.84574	 15.24242	 29.32126	  6.51490	  0.23183	 43.01620	715.20001	 26.40	
  8.492	 67.425	 41.91843	 22.16386	 13.15184	 28.49065	  7.14061	  0.27074	 43.00810	715.09003	 26.40	
  8.487	 56.277	 41.94302	 24.22594	 11.38387	 27.30206	  8.13413	  0.37401	 43.00158	715.15997	 26.40	
  8.495	 44.961	 41.94978	 26.04112	  9.82250	 25.67317	  9.46167	  0.42716	 42.98162	715.22998	 26.40	
  8.494	 33.806	 41.98087	 27.52962	  8.59914	 23.78112	 11.10723	  0.45860	 43.00724	715.28998	 26.50	
  8.502	 22.507	 41.98665	 28.63437	  7.70767	 21.68718	 12.95421	  0.46828	 43.02784	715.21997	 26.50	
  8.491	 11.296	 41.96309	 29.27116	  7.19903	 19.35602	 15.09170	  0.46424	 42.99107	715.17999	 26.50	
  8.500	  0.000	 41.97443	 29.48618	  7.10367	 17.04386	 17.36952	  0.43691	 42.99083	715.27002	 26.50	
  8.491	-11.296	 41.93092	 29.17550	  7.29997	 14.84687	 19.58263	  0.39509	 42.96088	715.22998	 26.50	
  8.502	-22.507	 41.84127	 28.39710	  7.83846	 12.73687	 21.80936	  0.34254	 42.89640	715.12000	 26.50	
  8.494	-33.806	 41.78045	 27.14571	  8.78934	 10.86084	 23.92602	  0.24589	 42.86998	715.23999	 26.50	
  8.495	-44.961	 41.76757	 25.63383	 10.09609	  9.37601	 25.73331	  0.17046	 42.89011	715.10999	 26.50	
  8.487	-56.277	 41.63519	 23.73913	 11.71536	  8.19944	 27.16225	  0.01015	 42.78891	715.07001	 26.50	
  8.492	-67.425	 41.73487	 21.73185	 13.59482	  7.28361	 28.32948	  0.02256	 42.92540	715.09003	 26.50	
  8.510	-78.780	 41.75883	 19.42628	 15.71782	  6.70579	 29.04347	 -0.17064	 42.98339	715.19000	 26.50	
  8.500	-90.000	 41.72926	 17.09932	 17.94046	  6.56203	 29.22584	 -0.12411	 42.99355	715.29999	 26.60	
  8.510	-101.220	 41.69621	 14.88417	 20.23919	  6.78206	 28.93064	 -0.27686	 43.01419	715.25000	 26.60	
  8.492	-112.575	 41.56106	 12.88751	 22.48225	  7.38967	 28.07001	 -0.13580	 42.93015	715.16998	 26.60	
  8.487	-123.723	 41.44744	 11.18610	 24.48904	  8.36151	 26.78446	 -0.25605	 42.85698	715.26001	 26.60	
  8.495	-135.039	 41.41742	  9.64177	 26.30133	  9.62399	 25.18098	 -0.25932	 42.85887	715.26001	 26.60	
  8.494	-146.194	 41.42398	  8.39035	 27.76486	 11.17664	 23.29940	 -0.27283	 42.87873	715.09998	 26.60	
  8.502	-157.493	 41.39598	  7.40755	 28.84031	 13.05435	 21.13661	 -0.24285	 42.83573	715.21002	 26.70	
  8.491	-168.704	 41.39812	  6.82257	 29.46704	 15.15873	 18.89819	 -0.22675	 42.84188	715.09998	 26.70	
  8.500	180.000	 41.37475	  6.68400	 29.62638	 17.36533	 16.65169	 -0.22839	 42.81357	715.23999	 26.70	
 10.200	180.000	 40.64629	  4.11866	 31.42516	 16.80252	 15.94179	 -0.63007	 42.77625	715.16998	 26.70	
 10.191	-170.497	 40.63601	  4.27811	 31.28469	 14.58086	 18.21461	 -0.61586	 42.78828	715.14001	 26.70	
 10.210	-161.034	 40.62605	  4.77403	 30.77140	 12.39790	 20.49861	 -0.60747	 42.79600	715.16998	 26.70	
 10.194	-151.526	 40.59970	  5.59270	 29.81538	 10.40292	 22.71524	 -0.61627	 42.78133	715.17999	 26.70	
 10.190	-142.105	 40.65227	  6.65088	 28.56271	  8.68471	 24.77574	 -0.63534	 42.81536	715.12000	 26.70	
 10.215	-132.646	 40.66617	  7.91586	 26.98086	  7.14953	 26.66494	 -0.66484	 42.82473	715.10999	 26.70	
 10.203	-123.092	 40.74993	  9.50320	 25.09437	  5.93931	 28.28450	 -0.67519	 42.87527	715.15002	 26.70	
 10.192	-113.678	 40.89775	 11.24115	 23.06507	  4.98804	 29.59451	 -0.70776	 42.98064	715.21002	 26.80	
 10.208	-104.249	 40.90950	 13.15892	 20.85988	  4.29105	 30.48339	 -0.69047	 42.94218	715.28998	 26.80	
 10.210	-94.801	 40.97531	 15.23103	 18.54535	  4.01146	 30.97914	 -0.69544	 42.97074	715.14001	 26.80	
 10.210	-85.199	 41.02208	 17.60113	 16.24844	  3.94421	 31.06380	 -0.66615	 42.97674	715.21002	 26.80	
 10.208	-75.751	 41.04376	 19.99049	 14.01939	  4.22304	 30.68093	 -0.62262	 42.93021	715.27002	 26.80	
 10.192	-66.322	 41.04814	 22.24352	 11.97863	  4.89439	 29.87425	 -0.53226	 42.88215	715.26001	 26.80	
 10.203	-56.908	 41.07238	 24.33805	 10.13027	  5.75178	 28.76197	 -0.50654	 42.88672	715.27002	 26.80	
 10.215	-47.354	 40.89615	 26.12961	  8.47283	  6.91009	 27.19737	 -0.42997	 42.68167	715.21997	 26.80	
 10.190	-37.895	 40.66115	 27.61243	  7.10397	  8.34504	 25.33016	 -0.25364	 42.44476	715.04999	 26.80	
 10.194	-28.474	 40.44941	 28.86207	  5.99411	  9.96769	 23.31027	 -0.08743	 42.22831	715.20001	 26.90	
 10.210	-18.966	 40.78165	 30.10609	  5.20937	 11.95516	 21.21572	 -0.11711	 42.50282	715.23999	 26.90	
 10.191	 -9.503	 41.28580	 31.06915	  4.74040	 14.17150	 19.06836	 -0.20144	 42.93399	715.25000	 26.90	
 10.200	  0.000	 41.29631	 31.33136	  4.54882	 16.39577	 16.79332	 -0.10511	 42.95535	715.21997	 26.90	
 10.191	  9.503	 41.19548	 31.09753	  4.60449	 18.70027	 14.47168	  0.03853	 42.86370	715.29999	 26.90	
 10.210	 18.966	 41.10748	 30.49148	  5.03247	 20.98373	 12.29506	 -0.05229	 42.79320	715.28003	 26.90	
 10.194	 28.474	 41.16685	 29.53195	  5.77867	 23.23599	 10.35791	 -0.03492	 42.84155	715.32001	 26.90	
 10.190	 37.895	 41.26811	 28.30635	  6.83357	 25.35900	  8.59338	 -0.19224	 42.93579	715.15997	 26.90	
 10.215	 47.354	 41.04945	 26.60189	  8.10115	 27.11238	  7.06370	 -0.20714	 42.75983	715.19000	 26.90	
 10.203	 56.908	 41.07519	 24.74800	  9.64870	 28.67054	  5.84991	 -0.27765	 42.79222	715.26001	 27.00	
 10.192	 66.322	 41.13974	 22.69439	 11.42343	 29.89642	  4.90905	 -0.29901	 42.86064	715.16998	 27.00	
 10.208	 75.751	 41.23388	 20.48116	 13.42907	 30.82314	  4.21382	 -0.37379	 42.96663	715.26001	 27.00	
 10.210	 85.199	 41.32521	 18.22880	 15.63083	 31.36362	  3.80755	 -0.43020	 43.06194	715.28003	 27.00	
 10.210	 94.801	 41.28588	 15.94126	 17.91889	 31.40899	  3.71410	 -0.48680	 43.05736	715.21002	 27.00	
 10.208	104.249	 41.29367	 13.74463	 20.24076	 31.03958	  3.98737	 -0.50124	 43.11045	715.17999	 27.00	
 10.192	113.678	 41.23087	 11.66819	 22.47719	 30.25069	  4.54033	 -0.51058	 43.08271	715.27002	 27.00	
 10.203	123.092	 41.16971	  9.77677	 24.58656	 29.12781	  5.34982	 -0.55437	 43.07825	715.10999	 27.00	
 10.215	132.646	 41.15635	  8.06518	 26.59233	 27.65061	  6.44390	 -0.60242	 43.09794	715.19000	 27.00	
 10.190	142.105	 41.14167	  6.66516	 28.32064	 25.83205	  7.91749	 -0.64307	 43.12627	715.26001	 27.00	
 10.194	151.526	 41.13568	  5.57565	 29.73624	 23.76455	  9.65914	 -0.64952	 43.14565	715.13000	 27.00	
 10.210	161.034	 41.09238	  4.75024	 30.77608	 21.56086	 11.54574	 -0.71137	 43.13609	715.21002	 27.00	
 10.191	170.497	 41.06803	  4.28363	 31.41668	 19.19057	 13.71912	 -0.75307	 43.12901	715.26001	 27.00	
 11.899	171.783	 40.27473	  1.62492	 33.21018	 18.54841	 12.93903	 -1.15102	 43.17960	715.26001	 27.10	
 11.890	163.610	 40.34132	  2.00379	 32.64536	 20.87077	 10.83002	 -1.11195	 43.22469	715.20001	 27.10	
 11.889	155.445	 40.37401	  2.67987	 31.71971	 23.16661	  8.85297	 -1.04631	 43.22178	715.22998	 27.10	
 11.909	147.299	 40.35791	  3.59985	 30.47101	 25.37045	  6.97612	 -1.07077	 43.18241	715.28003	 27.10	
 11.902	139.148	 40.38819	  4.80452	 28.89360	 27.34940	  5.37758	 -1.07163	 43.15870	715.26001	 27.10	
 11.894	130.867	 40.42848	  6.31208	 27.06493	 29.08219	  4.05336	 -1.02274	 43.16914	715.13000	 27.10	
 11.897	122.732	 40.44176	  8.05112	 25.01712	 30.49727	  3.02750	 -0.96996	 43.11922	715.17999	 27.10	
 11.903	114.597	 40.50495	  9.96038	 22.86834	 31.71552	  2.18325	 -0.95922	 43.13982	715.23999	 27.10	
 11.893	106.346	 40.54099	 12.03226	 20.58632	 32.57066	  1.62612	 -0.96370	 43.13378	715.35999	 27.10	
 11.892	 98.155	 40.58683	 14.22231	 18.28975	 33.09679	  1.31889	 -0.93494	 43.13954	715.27002	 27.10	
 11.900	 90.000	 40.67408	 16.47444	 15.99874	 33.29068	  1.15767	 -0.95807	 43.19178	715.27002	 27.10	
 11.892	 81.845	 40.71325	 18.75558	 13.77274	 33.07090	  1.37808	 -0.92694	 43.20761	715.31000	 27.10	
 11.893	 73.654	 40.71260	 21.07463	 11.61677	 32.43629	  1.81230	 -0.88834	 43.18947	715.20001	 27.20	
 11.903	 65.403	 40.72731	 23.38859	  9.61163	 31.54933	  2.46510	 -0.88395	 43.20063	715.22998	 27.20	
 11.897	 57.268	 40.75618	 25.49166	  7.90110	 30.29425	  3.44327	 -0.87017	 43.19930	715.29999	 27.20	
 11.894	 49.133	 40.79785	 27.41688	  6.34769	 28.79945	  4.57276	 -0.84617	 43.21170	715.31000	 27.20	
 11.902	 40.852	 40.74030	 29.12119	  4.94950	 26.98436	  5.94253	 -0.76070	 43.18174	715.20001	 27.20	
 11.909	 32.701	 40.72208	 30.56901	  3.79746	 24.92129	  7.65108	 -0.62108	 43.16304	715.26001	 27.20	
 11.889	 24.555	 40.75829	 31.74917	  2.95416	 22.69045	  9.59855	 -0.55718	 43.18479	715.10999	 27.20	
 11.890	 16.390	 40.73003	 32.58072	  2.31849	 20.37797	 11.60116	 -0.59108	 43.15083	715.22998	 27.20	
 11.899	  8.217	 40.71482	 33.09285	  1.90617	 18.04525	 13.82765	 -0.64166	 43.14304	715.13000	 27.20	
 11.900	  0.000	 40.66466	 33.20393	  1.75457	 15.67527	 16.15726	 -0.65643	 43.09423	715.15002	 27.20	
 11.899	 -8.217	 40.64603	 32.95257	  2.09027	 13.42098	 18.47763	 -0.67385	 43.08108	715.09003	 27.20	
 11.890	-16.390	 40.63951	 32.35744	  2.53189	 11.23229	 20.79628	 -0.69695	 43.06046	715.09998	 27.30	
 11.889	-24.555	 40.63565	 31.42055	  3.17915	  9.19111	 23.07684	 -0.76096	 43.07677	715.09003	 27.30	
 11.909	-32.701	 40.59100	 30.15436	  4.11574	  7.37777	 25.16058	 -0.85198	 43.06166	715.19000	 27.30	
 11.902	-40.852	 40.61833	 28.61735	  5.32655	  5.74659	 27.14775	 -0.96252	 43.12836	715.16998	 27.30	
 11.894	-49.133	 40.58712	 26.77378	  6.78261	  4.33333	 28.90479	 -0.99123	 43.13482	715.19000	 27.30	
 11.897	-57.268	 40.52707	 24.86988	  8.46385	  3.25473	 30.31294	 -0.97626	 43.10917	715.17999	 27.30	
 11.903	-65.403	 40.46336	 22.75009	 10.28909	  2.39782	 31.41717	 -0.97548	 43.08541	715.09998	 27.30	
 11.893	-73.654	 40.44905	 20.33819	 12.34068	  1.80594	 32.27713	 -1.01721	 43.12696	715.08002	 27.30	
 11.892	-81.845	 40.39326	 18.00168	 14.51853	  1.44368	 32.74808	 -1.05101	 43.11446	715.15997	 27.30	
 11.900	-90.000	 40.34332	 15.68354	 16.77019	  1.36323	 32.87074	 -1.06516	 43.11212	715.12000	 27.30	
 11.892	-98.155	 40.27771	 13.61201	 19.06292	  1.46378	 32.60099	 -1.07883	 43.10094	715.21997	 27.30	
 11.893	-106.346	 40.22528	 11.48989	 21.34681	  1.86860	 31.95040	 -1.03112	 43.08392	715.09003	 27.30	
 11.903	-114.597	 40.17013	  9.50645	 23.59905	  2.51195	 31.01738	 -1.04782	 43.10103	715.27002	 27.30	
 11.897	-122.732	 40.15462	  7.74174	 25.71766	  3.42337	 29.75961	 -1.07853	 43.12778	715.19000	 27.30	
 11.894	-130.867	 40.14325	  6.16185	 27.68130	  4.61395	 28.15573	 -1.09992	 43.12450	715.29999	 27.30	
 11.902	-139.148	 40.11829	  4.81103	 29.42793	  6.08020	 26.28720	 -1.09218	 43.10447	715.27002	 27.40	
 11.909	-147.299	 40.11494	  3.69478	 30.87101	  7.77612	 24.24728	 -1.09145	 43.11012	715.32001	 27.40	
 11.889	-155.445	 40.14192	  2.82719	 31.97917	  9.66693	 22.08412	 -1.08541	 43.11744	715.16998	 27.40	
 11.890	-163.610	 40.15134	  2.14263	 32.79892	 11.75007	 19.80935	 -1.09236	 43.11379	715.29999	 27.40	
 11.899	-171.783	 40.16733	  1.66745	 33.28031	 13.94620	 17.48887	 -1.13556	 43.11211	715.33002	 27.40	
 11.900	180.000	 40.19359	  1.39536	 33.41327	 16.19266	 15.19400	 -1.15607	 43.11759	715.34003	 27.40	
 13.600	180.000	 39.19801	 -1.10793	 35.04203	 15.38065	 14.31489	 -1.45505	 43.13640	715.28003	 27.40	
 13.608	-172.853	 39.15871	 -1.01231	 34.93639	 13.15351	 16.56429	 -1.43421	 43.13399	715.38000	 27.40	
 13.611	-165.583	 39.16263	 -0.54455	 34.52497	 10.89539	 18.92928	 -1.36244	 43.14069	715.33002	 27.40	
 13.601	-158.353	 39.12794	  0.11528	 33.76803	  8.78414	 21.24679	 -1.31586	 43.11064	715.39001	 27.50	
 13.609	-151.210	 39.13570	  0.90107	 32.77727	  6.89076	 23.46317	 -1.27405	 43.12917	715.34998	 27.50	
 13.611	-143.999	 39.09324	  1.87015	 31.45387	  5.04079	 25.61251	 -1.27056	 43.12005	715.22998	 27.50	
 13.601	-136.825	 39.11522	  3.00657	 29.91429	  3.45322	 27.58291	 -1.27861	 43.14119	715.33002	 27.50	
 13.596	-129.640	 39.10944	  4.34835	 28.12244	  2.14502	 29.34750	 -1.23983	 43.10938	715.32001	 27.50	
