FileType=PCF
NHL=14
Date=03/14/19	13:03:11
Facility=APL
Serial=16071-9
Customer=NASA
NP=6
Mach=0.300000
Calibration=1:1
CalPts=490
TstPts=95
PortNumbering=AP Standard
Units=Torr C m/s kg/m^3 deg mm 
Theta[deg]	Phi[deg]	P1[Torr]	P2[Torr]	P3[Torr]	P4[Torr]	P5[Torr]	P6[Torr]	Pt[Torr]	Ps[Abs,Torr]	Ts[C]	
  0.000	  0.000	 42.75615	 17.69020	 18.45014	 18.15324	 17.68309	  0.48811	 42.73593	708.59998	 22.60	
  1.691	128.401	 42.77362	 16.38416	 19.84538	 20.02386	 15.96154	  0.42013	 42.75727	708.58002	 22.70	
  1.692	 77.194	 42.76712	 18.21309	 17.84690	 20.47062	 15.56254	  0.50745	 42.74646	708.56000	 22.70	
  1.699	 26.182	 42.78068	 19.90960	 16.29453	 19.14664	 16.77181	  0.54616	 42.75456	708.54999	 22.70	
  1.699	-26.182	 42.77299	 19.87798	 16.32563	 17.09105	 18.76221	  0.51209	 42.73961	708.48999	 22.80	
  1.692	-77.194	 42.80230	 18.17176	 17.91050	 15.94800	 19.82819	  0.43392	 42.78012	708.71002	 22.80	
  1.691	-128.401	 42.76473	 16.32698	 19.88166	 16.35363	 19.28356	  0.34948	 42.75753	708.65997	 22.90	
  1.700	180.000	 42.79932	 15.49767	 20.79762	 18.16408	 17.58099	  0.35986	 42.78027	708.53998	 22.90	
  3.400	180.000	 42.71791	 12.98892	 23.08268	 18.04374	 17.37114	  0.15499	 42.78772	708.57001	 23.00	
  3.388	-152.325	 42.70047	 13.47916	 22.52964	 15.89153	 19.36392	  0.15847	 42.75687	708.54999	 23.00	
  3.397	-124.529	 42.74223	 14.93689	 21.02612	 14.24692	 21.27881	  0.17365	 42.77446	708.59998	 23.00	
  3.399	-96.763	 42.74086	 16.91196	 18.87266	 13.43627	 22.22632	  0.22922	 42.77277	708.50000	 23.10	
  3.394	-69.283	 42.75139	 19.15415	 16.65352	 13.67898	 21.97578	  0.30321	 42.77302	708.65997	 23.10	
  3.400	-41.398	 42.76941	 21.21106	 14.82743	 14.95507	 20.59786	  0.40653	 42.79266	708.58002	 23.20	
  3.401	-14.021	 42.77676	 22.39671	 13.79637	 16.84496	 18.79700	  0.46742	 42.79206	708.59998	 23.20	
  3.401	 14.021	 42.76443	 22.42812	 13.74734	 19.02024	 16.60685	  0.48855	 42.79718	708.64001	 23.30	
  3.400	 41.398	 42.77092	 21.32952	 14.72336	 21.16775	 14.71923	  0.47937	 42.82729	708.83002	 23.30	
  3.394	 69.283	 42.76339	 19.30066	 16.52720	 22.55956	 13.45289	  0.43508	 42.82283	708.78003	 23.40	
  3.399	 96.763	 42.77029	 17.14456	 18.70424	 22.89500	 13.13285	  0.35441	 42.84939	708.67999	 23.40	
  3.397	124.529	 42.73751	 15.09059	 20.88108	 22.05341	 13.82346	  0.28720	 42.81138	708.59003	 23.50	
  3.388	152.325	 42.73930	 13.58327	 22.48177	 20.26275	 15.41712	  0.21173	 42.81419	708.64001	 23.50	
  5.099	161.165	 42.49184	 10.87865	 24.82331	 20.09283	 14.94338	 -0.07392	 42.81985	708.81000	 23.50	
  5.109	142.013	 42.48160	 11.95136	 23.61372	 22.29144	 13.02846	  0.06483	 42.81829	708.67999	 23.60	
  5.095	123.033	 42.50457	 13.66115	 21.78338	 23.98382	 11.58569	  0.08937	 42.84598	708.65002	 23.60	
  5.105	104.191	 42.51330	 15.77910	 19.55973	 24.97991	 10.76183	  0.13585	 42.84230	708.59003	 23.70	
  5.093	 85.207	 42.53056	 17.91521	 17.22583	 25.12833	 10.69492	  0.19788	 42.85888	708.57001	 23.70	
  5.104	 66.290	 42.54311	 20.28694	 15.05480	 24.49116	 11.26590	  0.26585	 42.84858	708.67999	 23.70	
  5.094	 47.331	 42.56997	 22.41730	 13.21941	 23.08580	 12.52039	  0.31742	 42.84909	708.72998	 23.80	
  5.089	 28.397	 42.59492	 23.90560	 11.94524	 21.11154	 14.27963	  0.37757	 42.84820	708.65002	 23.80	
  5.096	  9.576	 42.61669	 24.68497	 11.25602	 18.76258	 16.38881	  0.36835	 42.86367	708.71997	 23.90	
  5.096	 -9.576	 42.61750	 24.67789	 11.30819	 16.52965	 18.58224	  0.33456	 42.85590	708.65997	 23.90	
  5.089	-28.397	 42.63277	 23.82172	 12.04135	 14.42100	 20.69754	  0.27744	 42.85400	708.66998	 23.90	
  5.094	-47.331	 42.66570	 22.24118	 13.41882	 12.68056	 22.66412	  0.19264	 42.88095	708.72998	 24.00	
  5.104	-66.290	 42.64865	 20.10233	 15.29690	 11.46705	 23.97441	  0.09495	 42.86140	708.72998	 24.00	
  5.093	-85.207	 42.66941	 17.71515	 17.52106	 11.04917	 24.50817	  0.01908	 42.88036	708.62000	 24.00	
  5.105	-104.191	 42.65241	 15.55987	 19.85068	 11.23427	 24.24512	 -0.04178	 42.87323	708.56000	 24.10	
  5.095	-123.033	 42.65016	 13.47719	 22.05619	 12.09406	 23.19495	 -0.09575	 42.87898	708.59998	 24.10	
  5.109	-142.013	 42.63282	 11.84127	 23.82213	 13.55640	 21.43776	 -0.10250	 42.89430	708.64001	 24.20	
  5.099	-161.165	 42.61787	 10.82110	 24.95235	 15.60116	 19.34944	 -0.10045	 42.90503	708.59003	 24.20	
  5.100	180.000	 42.56887	 10.52121	 25.27665	 17.81721	 17.10311	 -0.09859	 42.88825	708.67999	 24.20	
  6.800	180.000	 42.16196	  7.99583	 27.34220	 17.43867	 16.63425	 -0.42042	 42.87533	708.50000	 24.30	
  6.796	-166.229	 42.20539	  8.20078	 27.09091	 15.27465	 18.72931	 -0.41735	 42.88300	708.56000	 24.30	
  6.808	-152.311	 42.25768	  8.91000	 26.31607	 13.19680	 20.90173	 -0.42524	 42.90172	708.63000	 24.30	
  6.795	-138.383	 42.28761	 10.10146	 24.99770	 11.45669	 22.97406	 -0.40580	 42.89648	708.53998	 24.40	
  6.792	-124.591	 42.31442	 11.67973	 23.24684	 10.10452	 24.66565	 -0.39326	 42.90129	708.58002	 24.40	
  6.787	-110.754	 42.32093	 13.58454	 21.14798	  9.17126	 25.85761	 -0.38926	 42.88720	708.50000	 24.40	
  6.800	-96.985	 42.33215	 15.72947	 18.91261	  8.62553	 26.53079	 -0.35636	 42.90233	708.46997	 24.50	
  6.800	-83.015	 42.35816	 17.82776	 16.66629	  8.59945	 26.58058	 -0.33315	 42.91503	708.48999	 24.50	
  6.787	-69.246	 42.35679	 20.14360	 14.52838	  9.03543	 26.06125	 -0.24047	 42.90764	708.51001	 24.60	
  6.792	-55.409	 42.38326	 22.36986	 12.58808	  9.95651	 25.03412	 -0.16035	 42.93227	708.50000	 24.60	
  6.795	-41.617	 42.35761	 24.20957	 10.99517	 11.31960	 23.46413	 -0.09567	 42.91993	708.53003	 24.60	
  6.808	-27.689	 42.35803	 25.69394	  9.76038	 13.06306	 21.48385	 -0.00805	 42.92892	708.58002	 24.60	
  6.796	-13.771	 42.33187	 26.61100	  8.99768	 15.15603	 19.38737	  0.08259	 42.92443	708.54999	 24.70	
  6.800	  0.000	 42.30796	 26.93175	  8.70236	 17.26879	 17.19576	  0.09508	 42.92093	708.51001	 24.70	
  6.796	 13.771	 42.30309	 26.66756	  8.90943	 19.47584	 15.04740	  0.12411	 42.92663	708.56000	 24.80	
  6.808	 27.689	 42.27258	 25.86314	  9.58036	 21.82615	 12.97517	  0.13977	 42.91617	708.58002	 24.80	
  6.795	 41.617	 42.25317	 24.49963	 10.72589	 23.84262	 11.19754	  0.08017	 42.93204	708.63000	 24.80	
  6.792	 55.409	 42.24574	 22.67533	 12.26822	 25.48557	  9.74851	  0.00307	 42.94545	708.59003	 24.90	
  6.787	 69.246	 42.20721	 20.41607	 14.17004	 26.58521	  8.78661	 -0.02491	 42.92311	708.46997	 24.90	
  6.800	 83.015	 42.20116	 18.15568	 16.25803	 27.20883	  8.23933	 -0.08296	 42.94027	708.53998	 24.90	
  6.800	 96.985	 42.19160	 16.03590	 18.51749	 27.23526	  8.13974	 -0.13931	 42.93499	708.54999	 24.90	
  6.787	110.754	 42.19189	 13.86333	 20.78968	 26.67521	  8.57980	 -0.16895	 42.94664	708.60999	 25.00	
  6.792	124.591	 42.17309	 11.90000	 22.90152	 25.59334	  9.46025	 -0.20005	 42.93487	708.56000	 25.00	
  6.795	138.383	 42.19759	 10.29583	 24.71731	 24.01394	 10.81630	 -0.15323	 42.95596	708.58002	 25.00	
  6.808	152.311	 42.18401	  9.03825	 26.16729	 21.98047	 12.52783	 -0.33304	 42.94159	708.56000	 25.00	
  6.796	166.229	 42.20111	  8.26855	 27.04459	 19.72412	 14.51031	 -0.39150	 42.93741	708.50000	 25.10	
  8.491	168.704	 41.62877	  5.61902	 29.06063	 19.24352	 13.86702	 -0.70627	 42.93530	708.62000	 25.10	
  8.502	157.493	 41.59726	  6.16990	 28.31737	 21.57477	 11.77266	 -0.73417	 42.95285	708.46997	 25.10	
  8.494	146.194	 41.58821	  7.21604	 27.06402	 23.79848	  9.89354	 -0.65653	 42.94442	708.50000	 25.20	
  8.495	135.039	 41.59120	  8.60537	 25.46842	 25.67056	  8.32205	 -0.55725	 42.92570	708.54999	 25.20	
  8.487	123.723	 41.60441	 10.34092	 23.54238	 27.20485	  7.06860	 -0.53609	 42.95481	708.54999	 25.20	
  8.492	112.575	 41.58974	 12.26724	 21.41035	 28.34570	  6.13848	 -0.51953	 42.93733	708.53998	 25.20	
  8.510	101.220	 41.61078	 14.46131	 19.10487	 29.09117	  5.58058	 -0.52806	 42.96531	708.48999	 25.30	
  8.500	 90.000	 41.62817	 16.71185	 16.81377	 29.29830	  5.46434	 -0.47581	 42.95006	708.57001	 25.30	
  8.510	 78.780	 41.64618	 18.77717	 14.61663	 29.03804	  5.75481	 -0.44072	 42.95486	708.52002	 25.30	
  8.492	 67.425	 41.64212	 21.18816	 12.48714	 28.25403	  6.35866	 -0.39908	 42.93430	708.53003	 25.40	
  8.487	 56.277	 41.67544	 23.44288	 10.61246	 27.07107	  7.40060	 -0.35597	 42.93760	708.53003	 25.40	
  8.495	 44.961	 41.72585	 25.37715	  9.01911	 25.49821	  8.81228	 -0.29097	 42.96397	708.51001	 25.40	
  8.494	 33.806	 41.74422	 26.88689	  7.78533	 23.62590	 10.48370	 -0.20808	 42.96082	708.51001	 25.40	
  8.502	 22.507	 41.76327	 28.02662	  6.86104	 21.43225	 12.44139	 -0.19122	 42.94450	708.53998	 25.40	
  8.491	 11.296	 41.79016	 28.69717	  6.31648	 19.03806	 14.58982	 -0.20006	 42.96103	708.46997	 25.50	
  8.500	  0.000	 41.83765	 28.92801	  6.13706	 16.78117	 16.80673	 -0.23714	 42.97805	708.51001	 25.50	
  8.491	-11.296	 41.84153	 28.63636	  6.36800	 14.55420	 18.94778	 -0.29714	 42.96889	708.53003	 25.50	
  8.502	-22.507	 41.85496	 27.86580	  6.97783	 12.39683	 21.13524	 -0.32359	 42.96637	708.54999	 25.50	
  8.494	-33.806	 41.87592	 26.63355	  8.03718	 10.51063	 23.35123	 -0.44772	 42.96034	708.50000	 25.50	
  8.495	-44.961	 41.88857	 25.05148	  9.37274	  8.95484	 25.21057	 -0.50758	 42.95708	708.51001	 25.60	
  8.487	-56.277	 41.88650	 23.07639	 11.00033	  7.58229	 26.74397	 -0.56674	 42.94552	708.50000	 25.60	
  8.492	-67.425	 41.90519	 20.85134	 12.94513	  6.67020	 27.84421	 -0.66670	 42.98794	708.34998	 25.60	
  8.510	-78.780	 41.89031	 18.46468	 15.09116	  6.14418	 28.45675	 -0.71913	 42.96601	708.46002	 25.60	
  8.500	-90.000	 41.88766	 16.35491	 17.32663	  6.00699	 28.65926	 -0.74343	 42.97083	708.54999	 25.70	
  8.510	-101.220	 41.85747	 14.10641	 19.60912	  6.20017	 28.34538	 -0.78530	 42.96578	708.47998	 25.70	
  8.492	-112.575	 41.84631	 11.97521	 21.89706	  6.82351	 27.53088	 -0.79874	 42.95558	708.38000	 25.70	
  8.487	-123.723	 41.85542	 10.12151	 24.00933	  7.77888	 26.33228	 -0.77403	 42.96618	708.46997	 25.70	
  8.495	-135.039	 41.83670	  8.45922	 25.88261	  9.08271	 24.69156	 -0.79544	 42.96373	708.42999	 25.70	
  8.494	-146.194	 41.79580	  7.14504	 27.37351	 10.71966	 22.68555	 -0.77428	 42.95279	708.37000	 25.80	
  8.502	-157.493	 41.76577	  6.18379	 28.48202	 12.62509	 20.41768	 -0.77247	 42.95506	708.35999	 25.80	
  8.491	-168.704	 41.76063	  5.61938	 29.20184	 14.80575	 18.32869	 -0.79990	 42.98683	708.45001	 25.80	
  8.500	180.000	 41.71235	  5.42800	 29.39178	 17.02689	 16.05892	 -0.78888	 42.98639	708.38000	 25.80	
 10.200	180.000	 40.97576	  2.80918	 31.23106	 16.44489	 15.39322	 -1.16466	 42.96804	708.45001	 25.90	
 10.191	-170.497	 41.04100	  2.90719	 31.09786	 14.17114	 17.68834	 -1.20191	 42.98959	708.51001	 25.90	
 10.210	-161.034	 41.06953	  3.38983	 30.52131	 11.98110	 19.83152	 -1.19522	 42.98077	708.44000	 25.90	
 10.194	-151.526	 41.13001	  4.21176	 29.54519	 10.00455	 22.05764	 -1.15979	 42.98336	708.48999	 25.90	
 10.190	-142.105	 41.13932	  5.32657	 28.22544	  8.20171	 24.28300	 -1.18217	 42.96345	708.53003	 25.90	
 10.215	-132.646	 41.14275	  6.74771	 26.58081	  6.62894	 26.25003	 -1.19408	 42.96461	708.40002	 26.00	
 10.203	-123.092	 41.16415	  8.41693	 24.63004	  5.38786	 27.82398	 -1.21668	 42.95879	708.47998	 26.00	
 10.192	-113.678	 41.19452	 10.30356	 22.51838	  4.52974	 28.98519	 -1.18328	 42.96949	708.41998	 26.00	
 10.208	-104.249	 41.20461	 12.33784	 20.25788	  3.86955	 29.87379	 -1.16683	 42.98512	708.40997	 26.00	
 10.210	-94.801	 41.21074	 14.55407	 17.94604	  3.49948	 30.33537	 -1.17787	 42.97445	708.41998	 26.00	
 10.210	-85.199	 41.22120	 16.85797	 15.62348	  3.43346	 30.41853	 -1.19175	 42.97158	708.44000	 26.00	
 10.208	-75.751	 41.23948	 19.03053	 13.36756	  3.72675	 30.10838	 -1.16003	 42.98431	708.53003	 26.10	
 10.192	-66.322	 41.23413	 21.43526	 11.28161	  4.32062	 29.36744	 -1.12510	 42.96901	708.52002	 26.10	
 10.203	-56.908	 41.22823	 23.67365	  9.38852	  5.17823	 28.31091	 -1.02498	 42.97594	708.45001	 26.10	
 10.215	-47.354	 41.22904	 25.69703	  7.72145	  6.41395	 26.87387	 -0.96561	 42.97102	708.53998	 26.10	
 10.190	-37.895	 41.21467	 27.42854	  6.29739	  7.99460	 25.04872	 -0.95944	 42.96650	708.46997	 26.20	
 10.194	-28.474	 41.21320	 28.79247	  5.15269	  9.76128	 22.95606	 -0.86482	 42.97832	708.40997	 26.20	
 10.210	-18.966	 41.18270	 29.87052	  4.36320	 11.75121	 20.60262	 -0.76337	 42.97496	708.40002	 26.20	
 10.191	 -9.503	 41.17323	 30.53292	  3.86514	 13.94846	 18.54567	 -0.70440	 42.98379	708.39001	 26.20	
 10.200	  0.000	 41.13941	 30.79509	  3.58992	 16.18712	 16.26402	 -0.67879	 42.96449	708.46997	 26.20	
 10.191	  9.503	 41.11910	 30.59682	  3.76008	 18.46217	 14.02703	 -0.64660	 42.96060	708.46997	 26.20	
 10.210	 18.966	 41.07604	 30.00180	  4.16721	 20.86062	 11.80196	 -0.61208	 42.96992	708.42999	 26.30	
 10.194	 28.474	 41.05378	 29.02180	  4.91677	 23.17461	  9.74795	 -0.59904	 42.96649	708.40002	 26.30	
 10.190	 37.895	 41.02035	 27.72897	  5.92059	 25.22972	  7.91430	 -0.68917	 42.97166	708.35999	 26.30	
 10.215	 47.354	 40.99381	 26.07157	  7.24856	 27.08481	  6.22461	 -0.83128	 42.98862	708.47998	 26.30	
 10.203	 56.908	 40.94699	 24.04412	  8.87874	 28.63977	  4.81262	 -0.79538	 42.97742	708.42999	 26.30	
 10.192	 66.322	 40.93431	 21.80518	 10.74502	 29.82753	  3.85930	 -0.84655	 42.97588	708.44000	 26.40	
 10.208	 75.751	 40.91996	 19.38398	 12.79249	 30.68064	  3.21703	 -0.86761	 42.97071	708.44000	 26.40	
 10.210	 85.199	 40.90226	 17.29210	 14.97647	 31.15668	  2.79993	 -0.90869	 42.98285	708.46002	 26.40	
 10.210	 94.801	 40.89142	 14.98441	 17.30058	 31.18412	  2.72314	 -0.99190	 42.97829	708.44000	 26.40	
 10.208	104.249	 40.86159	 12.74019	 19.59808	 30.77822	  2.97944	 -1.02952	 42.96795	708.34003	 26.40	
 10.192	113.678	 40.86226	 10.61862	 21.89254	 29.96198	  3.61732	 -0.98995	 42.97455	708.41998	 26.40	
 10.203	123.092	 40.88145	  8.68338	 24.05936	 28.80663	  4.53369	 -0.97423	 42.99877	708.44000	 26.40	
 10.215	132.646	 40.87260	  6.89877	 26.06677	 27.27051	  5.74930	 -1.01648	 42.97494	708.29999	 26.40	
 10.190	142.105	 40.89133	  5.48302	 27.80796	 25.38360	  7.34030	 -1.09121	 42.98362	708.44000	 26.40	
 10.194	151.526	 40.87009	  4.33613	 29.19647	 23.34968	  9.02987	 -1.12852	 42.96585	708.37000	 26.50	
 10.210	161.034	 40.90643	  3.47571	 30.31415	 21.02499	 11.04008	 -1.12366	 42.98875	708.34003	 26.50	
 10.191	170.497	 40.94917	  3.03882	 30.96525	 18.66265	 13.20271	 -1.14622	 42.96632	708.41998	 26.50	
 11.899	171.783	 40.07720	  0.41219	 32.72974	 18.03233	 12.41475	 -1.50520	 42.96579	708.39001	 26.50	
 11.890	163.610	 40.05495	  0.86012	 32.12852	 20.31225	 10.24564	 -1.49690	 42.97586	708.40997	 26.50	
 11.889	155.445	 40.00807	  1.54575	 31.17476	 22.69304	  8.14834	 -1.54522	 42.98197	708.48999	 26.50	
 11.909	147.299	 39.98022	  2.47644	 29.91018	 24.86067	  6.29269	 -1.56616	 42.97200	708.50000	 26.60	
 11.902	139.148	 39.98618	  3.69699	 28.34902	 26.88607	  4.60467	 -1.51436	 42.97666	708.35999	 26.60	
 11.894	130.867	 39.99041	  5.20417	 26.52535	 28.67543	  3.10155	 -1.43547	 42.98236	708.46002	 26.60	
 11.897	122.732	 39.97090	  6.93452	 24.48827	 30.18893	  1.98973	 -1.42194	 42.96532	708.42999	 26.60	
 11.903	114.597	 39.97720	  8.87834	 22.30910	 31.38365	  1.18881	 -1.46153	 42.97607	708.34998	 26.60	
 11.893	106.346	 39.98009	 11.01108	 19.98973	 32.24641	  0.64322	 -1.51034	 42.96167	708.47998	 26.60	
 11.892	 98.155	 39.99615	 13.22843	 17.66575	 32.79841	  0.28952	 -1.52022	 42.96798	708.38000	 26.60	
 11.900	 90.000	 40.02850	 15.47974	 15.39549	 32.99681	  0.16468	 -1.43252	 42.98855	708.45001	 26.70	
 11.892	 81.845	 40.02453	 17.75560	 13.13432	 32.74766	  0.34662	 -1.35854	 42.95982	708.35999	 26.70	
 11.893	 73.654	 40.04456	 19.88608	 10.96262	 32.14894	  0.83128	 -1.35369	 42.96589	708.44000	 26.70	
 11.903	 65.403	 40.05257	 22.31750	  8.92880	 31.22758	  1.46781	 -1.38954	 42.97651	708.42999	 26.70	
 11.897	 57.268	 40.05919	 24.55054	  7.11516	 29.97178	  2.33034	 -1.35732	 42.96479	708.45001	 26.70	
 11.894	 49.133	 40.11061	 26.58651	  5.48752	 28.47793	  3.54639	 -1.38632	 42.98453	708.47998	 26.70	
 11.902	 40.852	 40.13432	 28.36655	  4.07276	 26.68487	  5.21789	 -1.20700	 42.96473	708.29999	 26.70	
 11.909	 32.701	 40.17691	 29.81492	  2.98109	 24.66510	  7.02407	 -1.05867	 42.96943	708.47998	 26.80	
 11.889	 24.555	 40.19999	 30.99937	  2.14033	 22.46572	  8.96026	 -1.03442	 42.96078	708.40997	 26.80	
 11.890	 16.390	 40.24473	 31.88879	  1.55754	 20.09683	 11.12815	 -1.03811	 42.96429	708.41998	 26.80	
 11.899	  8.217	 40.26834	 32.44011	  1.19682	 17.74349	 13.36313	 -1.07818	 42.96266	708.44000	 26.80	
 11.900	  0.000	 40.29710	 32.60900	  1.05368	 15.52551	 15.60857	 -1.09478	 42.96446	708.40002	 26.80	
 11.899	 -8.217	 40.31232	 32.37840	  1.26237	 13.22441	 17.94595	 -1.11412	 42.96942	708.38000	 26.80	
 11.890	-16.390	 40.35654	 31.76606	  1.73942	 11.02804	 20.06631	 -1.18694	 42.98121	708.47998	 26.90	
 11.889	-24.555	 40.38247	 30.78618	  2.39519	  8.98509	 22.31688	 -1.27846	 42.98618	708.39001	 26.90	
 11.909	-32.701	 40.36842	 29.52745	  3.27413	  7.06923	 24.58168	 -1.39074	 42.96866	708.34998	 26.90	
 11.902	-40.852	 40.38157	 28.01708	  4.48555	  5.33426	 26.58650	 -1.45515	 42.97438	708.44000	 26.90	
 11.894	-49.133	 40.39160	 26.16427	  5.97138	  3.88742	 28.30886	 -1.43277	 42.96262	708.39001	 26.90	
 11.897	-57.268	 40.40549	 24.13021	  7.64262	  2.75728	 29.67101	 -1.45133	 42.96552	708.38000	 26.90	
 11.903	-65.403	 40.38951	 21.84905	  9.46986	  1.84746	 30.81582	 -1.50628	 42.96321	708.33002	 26.90	
 11.893	-73.654	 40.38800	 19.42058	 11.56972	  1.21100	 31.64008	 -1.51588	 42.96769	708.47998	 27.00	
 11.892	-81.845	 40.39506	 17.21776	 13.79921	  0.81067	 32.18583	 -1.51411	 42.97398	708.34998	 27.00	
 11.900	-90.000	 40.35720	 14.94399	 16.06974	  0.68638	 32.30076	 -1.49814	 42.95722	708.32001	 27.00	
 11.892	-98.155	 40.33197	 12.70615	 18.34145	  0.89607	 31.98153	 -1.48040	 42.94927	708.39001	 27.00	
 11.893	-106.346	 40.31345	 10.50833	 20.67323	  1.34310	 31.31889	 -1.48850	 42.93034	708.29999	 27.00	
 11.903	-114.597	 40.32556	  8.48053	 22.98824	  2.04748	 30.36645	 -1.50144	 42.93768	708.34998	 27.00	
 11.897	-122.732	 40.34000	  6.62923	 25.13109	  2.99278	 29.12822	 -1.52875	 42.95723	708.33002	 27.10	
 11.894	-130.867	 40.30543	  4.95949	 27.08759	  4.15658	 27.61553	 -1.51414	 42.95271	708.37000	 27.10	
 11.902	-139.148	 40.27318	  3.51640	 28.83345	  5.61814	 25.73953	 -1.51363	 42.94188	708.39001	 27.10	
 11.909	-147.299	 40.25512	  2.28434	 30.30199	  7.31228	 23.59967	 -1.54001	 42.93863	708.26001	 27.10	
 11.889	-155.445	 40.25115	  1.35041	 31.49443	  9.22075	 21.24603	 -1.55181	 42.95935	708.41998	 27.10	
 11.890	-163.610	 40.19618	  0.65969	 32.32243	 11.25197	 19.14919	 -1.58479	 42.93516	708.44000	 27.10	
 11.899	-171.783	 40.13086	  0.24023	 32.84157	 13.45336	 16.93551	 -1.59321	 42.93500	708.35999	 27.10	
 11.900	180.000	 40.08167	  0.18112	 32.95980	 15.76148	 14.62649	 -1.56563	 42.93204	708.44000	 27.10	
 13.600	180.000	 39.04190	 -2.27701	 34.60670	 14.96415	 13.71181	 -1.87932	 42.93122	708.62000	 27.20	
 13.608	-172.853	 39.09066	 -2.23684	 34.49937	 12.70938	 15.96900	 -1.90429	 42.93564	708.34998	 27.20	
 13.611	-165.583	 39.17039	 -1.95213	 34.09270	 10.46428	 18.32212	 -1.88544	 42.95979	708.27002	 27.20	
 13.601	-158.353	 39.20546	 -1.44600	 33.33932	  8.36621	 20.35892	 -1.81379	 42.94655	708.34003	 27.20	
 13.609	-151.210	 39.21824	 -0.70685	 32.23888	  6.39321	 22.70707	 -1.75853	 42.90674	708.33002	 27.20	
 13.611	-143.999	 39.28349	  0.34711	 30.90669	  4.61314	 25.01392	 -1.72569	 42.95186	708.39001	 27.20	
 13.601	-136.825	 39.30786	  1.63284	 29.30292	  3.10791	 27.03673	 -1.70527	 42.93985	708.39001	 27.20	
 13.596	-129.640	 39.32862	  3.07988	 27.53411	  1.79162	 28.79371	 -1.68033	 42.94160	708.41998	 27.30	
