FileType=PCF
NHL=14
Date=03/14/19	14:14:31
Facility=APL
Serial=16071-9
Customer=NASA
NP=6
Mach=0.450000
Calibration=1:1
CalPts=490
TstPts=95
PortNumbering=AP Standard
Units=Torr C m/s kg/m^3 deg mm 
Theta[deg]	Phi[deg]	P1[Torr]	P2[Torr]	P3[Torr]	P4[Torr]	P5[Torr]	P6[Torr]	Pt[Torr]	Ps[Abs,Torr]	Ts[C]	
0.000000	0.000000	92.075170	39.159730	40.598890	40.324710	38.601400	0.688290	91.953200	708.020020	37.900000	
1.691000	128.401000	92.065290	36.104370	43.453980	44.080680	34.598240	0.561340	91.987340	708.070010	37.900000	
1.692000	77.194000	92.121350	40.248020	39.365090	44.992550	33.815580	0.741010	92.030390	708.030030	38.000000	
1.699000	26.182000	92.086200	43.553770	36.284070	42.391860	36.391880	0.810130	91.978970	707.969970	38.000000	
1.699000	-26.182000	92.131470	43.547130	36.391110	38.115220	40.772540	0.748310	91.998530	708.090030	38.100000	
1.692000	-77.194000	92.131200	40.154130	39.502850	35.555850	43.351590	0.584660	92.018140	707.950010	38.100000	
1.691000	-128.401000	92.143020	36.015010	43.672900	36.450520	42.338100	0.461260	92.046580	708.060000	38.200000	
1.700000	180.000000	92.161970	34.208390	45.532290	40.357410	38.375400	0.448110	92.073570	708.020020	38.200000	
3.400000	180.000000	91.960210	28.785960	50.259740	39.978730	37.927390	0.039040	92.056270	708.000000	38.200000	
3.388000	-152.325000	92.001580	29.822780	49.191510	35.486830	42.578800	0.000080	92.072790	708.030030	38.300000	
3.397000	-124.529000	92.052010	33.152580	46.010170	31.931540	46.262050	0.072890	92.061460	708.039980	38.300000	
3.399000	-96.763000	92.102500	37.506290	41.521520	30.238280	48.153660	0.179660	92.093890	708.030030	38.300000	
3.394000	-69.283000	92.108600	42.189450	37.091320	30.889390	47.634200	0.331300	92.089130	708.090030	38.400000	
3.400000	-41.398000	92.125800	46.278530	33.175480	33.468560	45.002010	0.507920	92.106520	707.989990	38.400000	
3.401000	-14.021000	92.134190	48.633560	31.059550	37.540950	40.892970	0.657620	92.133350	707.969970	38.500000	
3.401000	14.021000	92.092600	48.650650	30.958750	42.252110	36.068230	0.728740	92.119540	708.049990	38.500000	
3.400000	41.398000	92.024860	46.394550	32.965560	46.448470	31.725830	0.672170	92.067310	708.090030	38.500000	
3.394000	69.283000	91.932970	42.378480	36.699500	49.227550	29.021040	0.570650	92.007800	707.960020	38.600000	
3.399000	96.763000	91.990810	37.778980	41.169000	49.786270	28.494670	0.411440	92.094440	707.969970	38.600000	
3.397000	124.529000	91.977970	33.331610	45.701440	48.045990	30.019430	0.289340	92.081180	708.080020	38.700000	
3.388000	152.325000	91.988620	29.973510	48.968280	44.403330	33.331950	0.113610	92.090410	708.080020	38.700000	
5.099000	161.165000	91.449260	24.366560	53.902490	44.095250	32.405830	-0.502450	92.073440	708.010010	38.700000	
5.109000	142.013000	91.483770	26.645430	51.387470	48.670270	28.293270	-0.336950	92.140700	707.400020	38.700000	
5.095000	123.033000	91.486910	30.185040	47.598130	52.066730	25.353090	-0.138410	92.123730	708.099980	38.800000	
5.105000	104.191000	91.452960	34.808650	43.010330	54.075260	23.689760	-0.051540	92.074210	708.049990	38.800000	
5.093000	85.207000	91.526920	39.684520	38.260490	54.488020	23.495660	0.067980	92.136740	708.020020	38.900000	
5.104000	66.290000	91.534970	44.455970	33.668050	53.192420	24.668080	0.206670	92.122860	708.020020	38.900000	
5.094000	47.331000	91.578040	48.695790	29.726020	50.292480	27.286910	0.323680	92.116740	708.159970	38.900000	
5.089000	28.397000	91.624040	51.824170	26.799160	46.315270	30.968490	0.451780	92.126110	708.109990	38.900000	
5.096000	9.576000	91.677890	53.692080	25.363390	41.692910	35.578990	0.398790	92.134570	708.130000	38.900000	
5.096000	-9.576000	91.772850	53.666830	25.470830	36.856890	40.594600	0.335130	92.200710	708.080020	39.000000	
5.089000	-28.397000	91.755040	51.663040	27.049570	32.339750	45.271060	0.178570	92.152890	708.080020	39.000000	
5.094000	-47.331000	91.790490	48.372490	30.076360	28.394250	49.148230	0.013650	92.165400	708.120000	39.000000	
5.104000	-66.290000	91.783690	44.054750	34.213340	25.934550	51.835510	-0.176260	92.138480	708.140010	39.100000	
5.093000	-85.207000	91.773570	39.257920	38.723100	24.894110	52.901970	-0.340720	92.142490	708.190000	39.100000	
5.105000	-104.191000	91.786060	34.429460	43.568400	25.301860	52.385280	-0.434550	92.174180	708.159970	39.100000	
5.095000	-123.033000	91.720590	29.777590	48.120180	27.194420	50.075370	-0.532740	92.133310	707.900020	39.100000	
5.109000	-142.013000	91.723120	26.356870	51.901700	30.363000	46.557510	-0.557350	92.209010	708.130000	39.200000	
5.099000	-161.165000	91.657840	24.216870	54.290970	34.727800	42.168900	-0.565640	92.183670	708.179990	39.200000	
5.100000	180.000000	91.607930	23.494520	54.984930	39.479010	37.220810	-0.566130	92.201100	708.179990	39.200000	
6.800000	180.000000	90.757450	18.222340	59.417170	38.679920	36.205200	-1.266650	92.180500	708.000000	39.200000	
6.796000	-166.229000	90.843870	18.689370	58.962940	33.997760	41.132580	-1.279600	92.195400	708.039980	39.200000	
6.808000	-152.311000	90.930950	20.254050	57.232140	29.438850	45.742150	-1.248820	92.201360	707.989990	39.300000	
6.795000	-138.383000	90.953370	22.741500	54.343050	25.788370	49.779990	-1.227450	92.164880	708.049990	39.300000	
6.792000	-124.591000	91.043210	26.086380	50.641620	22.995530	53.250870	-1.270250	92.177600	708.150020	39.300000	
6.787000	-110.754000	91.096380	30.047460	46.314610	20.901820	56.112440	-1.207850	92.212520	708.090030	39.400000	
6.800000	-96.985000	91.103520	34.824730	41.569820	19.687250	57.602580	-1.139910	92.197750	708.150020	39.400000	
6.800000	-83.015000	91.092640	39.555390	36.984760	19.602600	57.760600	-1.075290	92.172490	708.210020	39.400000	
6.787000	-69.246000	91.112630	44.267910	32.496270	20.612960	56.651260	-0.926540	92.189420	708.120000	39.400000	
6.792000	-55.409000	91.129050	48.735620	28.064020	22.633790	54.113350	-0.775860	92.212100	708.219970	39.400000	
6.795000	-41.617000	91.125700	52.708190	24.756520	25.597310	50.819890	-0.602410	92.232670	708.169980	39.500000	
6.808000	-27.689000	91.074100	55.890410	22.206620	29.361580	46.743820	-0.390580	92.185490	708.210020	39.500000	
6.796000	-13.771000	91.047440	57.799800	20.610550	33.967880	42.127420	-0.235410	92.179340	708.200010	39.500000	
6.800000	0.000000	91.012820	58.503030	19.924680	38.613010	37.228240	-0.191580	92.189020	708.159970	39.500000	
6.796000	13.771000	90.939030	57.973200	20.321660	43.305120	32.416560	-0.157640	92.187420	708.190000	39.600000	
6.808000	27.689000	90.861230	56.149120	21.800580	47.969690	28.094740	-0.095570	92.180630	708.130000	39.600000	
6.795000	41.617000	90.813050	52.985480	24.269250	51.971020	24.383740	-0.202980	92.172170	708.179990	39.600000	
6.792000	55.409000	90.804800	49.250250	27.653800	55.502620	21.438340	-0.385870	92.250140	708.090030	39.600000	
6.787000	69.246000	90.801870	44.901040	31.830870	57.838490	19.561430	-0.407200	92.256760	708.210020	39.700000	
6.800000	83.015000	90.718820	40.206710	36.204340	59.042860	18.466490	-0.548050	92.201680	708.239990	39.700000	
6.800000	96.985000	90.748670	35.331890	40.916210	59.011310	18.412960	-0.686610	92.239100	708.260010	39.700000	
6.787000	110.754000	90.717730	30.571260	45.593890	57.785520	19.320770	-0.695100	92.216350	708.190000	39.700000	
6.792000	124.591000	90.694180	26.425020	49.984080	55.458890	21.104000	-0.731190	92.212970	708.109990	39.700000	
6.795000	138.383000	90.691470	23.062600	53.760900	52.074420	23.805290	-0.913540	92.210660	708.109990	39.700000	
6.808000	152.311000	90.697680	20.500310	56.784410	47.986260	27.358030	-1.132140	92.203850	708.120000	39.700000	
6.796000	166.229000	90.742860	18.912130	58.692850	43.317480	31.640840	-1.193770	92.217150	708.130000	39.800000	
8.491000	168.704000	89.577320	13.864760	62.930130	42.457530	30.331480	-1.989550	92.202900	708.140010	39.800000	
8.502000	157.493000	89.533950	15.153450	61.363900	47.280320	25.947350	-1.933330	92.254360	708.130000	39.800000	
8.494000	146.194000	89.512150	17.268650	58.780920	51.749270	22.200750	-1.551500	92.237190	708.109990	39.800000	
8.495000	135.039000	89.595180	19.997150	55.382340	55.749000	19.095120	-1.566610	92.284130	708.090030	39.900000	
8.487000	123.723000	89.494450	23.357890	51.294020	58.983280	16.448410	-1.459970	92.213500	708.030030	39.900000	
8.492000	112.575000	89.465740	27.334240	46.914350	61.360290	14.525510	-1.432310	92.210530	708.169980	39.900000	
8.510000	101.220000	89.470950	31.912450	42.040870	62.890880	13.336460	-1.465170	92.193040	708.090030	39.900000	
8.500000	90.000000	89.512750	36.822210	37.362840	63.413940	13.033160	-1.406430	92.219250	708.109990	39.900000	
8.510000	78.780000	89.571500	41.711540	32.737310	62.953150	13.383230	-1.297700	92.272610	708.090030	39.900000	
8.492000	67.425000	89.577000	46.502780	28.059900	61.365820	14.681190	-1.217770	92.246880	707.510010	40.000000	
8.487000	56.277000	89.590720	50.895710	24.055520	58.975180	16.791530	-1.177940	92.246900	708.039980	40.000000	
8.495000	44.961000	89.722460	55.055820	20.787800	55.666260	19.605760	-0.975590	92.304280	708.070010	40.000000	
8.494000	33.806000	89.749260	58.418010	18.082550	51.675400	22.828250	-0.834350	92.266560	708.090030	40.000000	
8.502000	22.507000	89.846890	60.872380	16.114010	47.292430	26.924700	-0.785700	92.295570	708.200010	40.000000	
8.491000	11.296000	89.905460	62.225830	15.012810	42.458680	31.488720	-0.828930	92.261340	707.419980	40.100000	
8.500000	0.000000	89.945460	62.674290	14.641690	37.638570	36.374550	-0.881550	92.250370	708.200010	40.100000	
8.491000	-11.296000	90.040530	62.040070	15.224810	32.912310	41.414010	-0.916190	92.254830	707.299990	40.100000	
8.502000	-22.507000	90.093530	60.532610	16.558550	28.116770	46.147530	-1.077330	92.272950	708.070010	40.100000	
8.494000	-33.806000	90.151180	58.015760	18.677200	24.152830	50.529830	-1.314800	92.281270	707.190000	40.100000	
8.495000	-44.961000	90.145800	54.525770	21.393610	20.722590	54.400040	-1.466250	92.258800	707.330020	40.100000	
8.487000	-56.277000	90.177860	50.242970	24.922060	17.913180	58.002580	-1.596340	92.286520	707.260010	40.100000	
8.492000	-67.425000	90.133710	45.770590	28.867120	15.552120	60.343030	-1.777280	92.270980	707.270020	40.200000	
8.510000	-78.780000	90.115760	40.952640	33.770330	14.107780	61.778130	-1.950870	92.265690	707.340030	40.200000	
8.500000	-90.000000	90.105280	36.107940	38.438050	13.802010	62.053500	-1.962200	92.277410	707.330020	40.200000	
8.510000	-101.220000	90.024750	31.137800	43.122540	14.272590	61.427780	-1.996250	92.237590	707.609990	40.200000	
8.492000	-112.575000	90.069270	26.716200	47.931490	15.739310	59.769390	-2.038370	92.271220	707.370000	40.200000	
8.487000	-123.723000	89.976770	22.688670	52.240920	17.995370	57.116330	-1.976360	92.210480	707.429990	40.200000	
8.495000	-135.039000	89.936990	19.235820	56.226960	20.825870	53.313750	-2.015010	92.230340	707.349980	40.200000	
8.494000	-146.194000	89.882740	16.596810	59.443730	24.222460	49.252750	-1.987230	92.244000	707.479980	40.200000	
8.502000	-157.493000	89.756810	14.650460	61.822610	28.228700	44.836690	-2.032110	92.197980	707.510010	40.300000	
8.491000	-168.704000	89.698990	13.447650	63.254100	33.030730	39.912640	-2.118280	92.211940	707.440000	40.300000	
8.500000	180.000000	89.609140	13.150620	63.649300	37.816390	34.920430	-2.045520	92.195850	707.359990	40.300000	
10.200000	180.000000	88.135730	7.746580	67.490420	36.580650	33.467240	-2.846070	92.207150	707.390010	40.300000	
10.191000	-170.497000	88.229480	7.799920	67.208240	31.649650	38.692870	-2.888130	92.220690	707.609990	40.300000	
10.210000	-161.034000	88.287690	8.826400	66.052640	26.898710	43.515950	-2.834890	92.208220	707.520020	40.400000	
10.194000	-151.526000	88.383960	10.698610	63.976640	22.712340	48.140040	-2.778500	92.178640	707.750000	40.400000	
10.190000	-142.105000	88.443170	13.112320	61.208670	19.094290	52.569000	-2.796270	92.182910	707.419980	40.400000	
10.215000	-132.646000	88.533070	16.105310	57.739490	15.413300	56.918740	-2.845530	92.251620	707.450010	40.400000	
10.203000	-123.092000	88.569930	19.406790	53.515960	12.485090	60.425380	-2.874730	92.199850	707.500000	40.400000	
10.192000	-113.678000	88.595830	23.265980	49.125000	10.580340	62.917210	-2.841860	92.187830	707.429990	40.400000	
10.208000	-104.249000	88.559230	27.517780	44.446780	9.185670	64.699170	-2.833430	92.138170	707.370000	40.400000	
10.210000	-94.801000	88.611350	32.279980	39.676760	8.521240	65.793360	-2.777650	92.173570	707.330020	40.400000	
10.210000	-85.199000	88.669240	37.269310	34.906390	8.470520	65.990130	-2.802960	92.196590	707.380000	40.500000	
10.208000	-75.751000	88.679240	42.185310	29.898380	9.179610	65.212770	-2.728360	92.178440	707.760010	40.500000	
10.192000	-66.322000	88.705570	46.924620	25.457140	10.440590	63.642590	-2.633570	92.197260	707.340030	40.500000	
10.203000	-56.908000	88.696600	51.482350	21.474390	12.491310	61.406790	-2.503080	92.184520	707.200010	40.500000	
10.215000	-47.354000	88.692150	55.888200	17.939400	15.699280	58.227080	-2.424970	92.192350	707.250000	40.500000	
10.190000	-37.895000	88.673630	59.609070	14.957090	18.967200	53.953030	-2.312810	92.174620	707.320010	40.600000	
10.194000	-28.474000	88.682750	62.473100	12.633600	22.581530	49.724690	-2.042500	92.202160	707.340030	40.600000	
10.210000	-18.966000	88.595710	64.703000	10.815470	26.736240	45.115870	-1.831100	92.171070	707.200010	40.600000	
10.191000	-9.503000	88.564750	66.115820	9.701600	31.823730	40.144990	-1.764170	92.180970	707.229980	40.600000	
10.200000	0.000000	88.520610	66.640400	9.314000	36.559160	35.052360	-1.642870	92.194650	707.250000	40.600000	
10.191000	9.503000	88.441390	66.291790	9.520050	41.334220	30.217520	-1.633790	92.215470	707.229980	40.600000	
10.210000	18.966000	88.308200	65.033030	10.266430	46.255130	25.569070	-1.649150	92.205250	707.190000	40.600000	
10.194000	28.474000	88.262660	62.905060	11.815970	50.847350	21.498440	-1.664660	92.223450	707.260010	40.600000	
10.190000	37.895000	88.191770	60.148820	13.966640	55.007290	17.866910	-1.757700	92.208180	707.270020	40.600000	
10.215000	47.354000	88.101480	56.504340	16.943580	58.997100	14.477450	-2.034270	92.213250	707.250000	40.600000	
10.203000	56.908000	88.021920	52.182070	20.494870	62.203880	11.853520	-2.112430	92.201850	707.390010	40.600000	
10.192000	66.322000	87.999870	47.721610	24.344270	64.759900	9.659420	-2.195350	92.225290	707.390010	40.600000	
10.208000	75.751000	87.974430	42.976680	28.690160	66.538350	8.318790	-2.252340	92.210690	707.289980	40.600000	
10.210000	85.199000	87.950040	38.080200	33.529190	67.372090	7.761390	-2.303450	92.210460	707.280030	40.600000	
10.210000	94.801000	87.949190	33.042160	38.346840	67.449910	7.706330	-2.409000	92.228590	707.169980	40.600000	
10.208000	104.249000	87.893620	28.318720	43.150540	66.644330	8.280510	-2.369500	92.199170	707.210020	40.600000	
10.192000	113.678000	87.905770	23.986360	47.938300	64.921360	9.574600	-2.331510	92.207050	707.250000	40.600000	
10.203000	123.092000	87.870350	20.314970	52.391570	62.371110	11.437210	-2.363760	92.179500	707.320010	40.600000	
10.215000	132.646000	87.865430	16.771850	56.591000	59.143890	13.884660	-2.510610	92.135130	707.310000	40.700000	
10.190000	142.105000	87.891720	13.743340	60.253110	55.151780	17.016460	-2.602460	92.176000	707.340030	40.700000	
10.194000	151.526000	87.889400	11.245390	63.250410	50.918940	20.548190	-2.733420	92.186160	707.299990	40.700000	
10.210000	161.034000	87.961380	9.367320	65.507470	46.251160	24.528460	-2.817230	92.214970	707.330020	40.700000	
10.191000	170.497000	88.037220	8.338090	66.856860	41.298610	28.937080	-2.858940	92.158050	707.289980	40.700000	
11.899000	171.783000	86.311260	2.773520	70.556080	39.999860	27.451140	-3.690260	92.208330	707.169980	40.700000	
11.890000	163.610000	86.181110	3.507490	69.267330	44.916410	23.099470	-3.624700	92.183190	707.260010	40.700000	
11.889000	155.445000	86.106930	4.957090	67.290030	49.712270	18.951480	-3.646340	92.185350	707.289980	40.700000	
11.909000	147.299000	86.026190	7.060990	64.723270	54.035760	15.171970	-3.544840	92.152630	707.229980	40.700000	
11.902000	139.148000	86.003780	9.882780	61.480640	58.352940	11.748620	-3.623490	92.147540	707.280030	40.800000	
11.894000	130.867000	86.032620	13.258070	57.645500	62.209610	8.803260	-3.345320	92.188380	707.289980	40.800000	
11.897000	122.732000	86.036030	16.861620	53.409500	65.315830	6.445560	-3.370590	92.194290	707.219970	40.800000	
11.903000	114.597000	85.993210	20.779420	48.889590	67.803090	4.560080	-3.408010	92.175440	707.370000	40.800000	
11.893000	106.346000	86.061060	24.721240	44.113080	69.566050	3.385380	-3.322560	92.168790	707.289980	40.800000	
11.892000	98.155000	86.100820	29.310150	39.284980	70.688550	2.669240	-3.540340	92.186780	707.349980	40.800000	
11.900000	90.000000	86.157550	34.067590	34.565720	71.103610	2.370620	-3.315340	92.225140	707.390010	40.900000	
11.892000	81.845000	86.141610	38.991360	29.687180	70.645330	2.616080	-3.340240	92.193950	707.330020	40.900000	
11.893000	73.654000	86.188860	44.026550	24.966160	69.461190	3.529570	-3.229660	92.227430	707.380000	40.900000	
11.903000	65.403000	86.134320	48.770340	20.697940	67.579150	5.010490	-3.222490	92.170200	707.469970	40.900000	
11.897000	57.268000	86.190960	53.294410	16.906150	65.081560	6.971050	-3.344630	92.185970	707.349980	40.900000	
11.894000	49.133000	86.260530	57.652340	13.095310	61.912900	9.486790	-3.306700	92.188500	707.299990	40.900000	
11.902000	40.852000	86.350840	61.542680	10.021940	58.101210	12.647840	-3.033010	92.186900	707.330020	41.000000	
11.909000	32.701000	86.416480	64.607140	7.680660	53.790980	16.242690	-2.786840	92.159110	707.380000	41.000000	
11.889000	24.555000	86.513520	67.081280	5.764470	49.490730	20.093930	-2.654930	92.201130	707.330020	41.000000	
11.890000	16.390000	86.603680	68.701350	4.744560	44.691060	24.458610	-2.699280	92.167430	707.299990	41.000000	
11.899000	8.217000	86.687290	69.840390	4.178280	39.803330	28.978700	-2.471500	92.160340	707.330020	41.000000	
11.900000	0.000000	86.753640	70.197840	3.976110	34.947430	33.697620	-2.494480	92.141570	707.330020	41.000000	
11.899000	-8.217000	86.814290	69.723640	4.174590	30.095340	39.207210	-2.868520	92.145830	707.299990	41.000000	
11.890000	-16.390000	86.918370	68.446630	5.089270	25.352650	43.863330	-2.722080	92.196420	707.280030	41.000000	
11.889000	-24.555000	86.953140	66.686340	6.332280	21.451570	48.482590	-3.059930	92.142360	707.330020	41.000000	
11.909000	-32.701000	86.992610	64.084470	8.243300	17.474440	53.067650	-3.174950	92.193500	707.320010	41.100000	
11.902000	-40.852000	86.936740	60.868130	10.947490	13.684580	57.487060	-3.271900	92.172330	707.429990	41.000000	
11.894000	-49.133000	86.987720	56.929360	14.358540	10.014050	61.412060	-3.357600	92.176450	707.349980	41.000000	
11.897000	-57.268000	87.027120	52.532860	18.051560	7.286990	64.383580	-3.418800	92.202830	707.280030	41.000000	
11.903000	-65.403000	86.884720	47.892960	21.791850	5.308440	66.826950	-3.632570	92.092150	707.349980	41.000000	
11.893000	-73.654000	86.927310	43.114540	26.075650	3.949470	68.701380	-3.574980	92.169300	707.200010	41.100000	
11.892000	-81.845000	86.880360	38.116110	30.927180	3.156690	69.413920	-3.656880	92.153740	707.260010	41.100000	
11.900000	-90.000000	86.838600	33.393490	35.778470	2.950830	69.585140	-3.595790	92.139030	707.229980	41.100000	
11.892000	-98.155000	86.770090	28.390180	40.509520	3.348080	69.252500	-3.599990	92.096900	707.219970	41.100000	
11.893000	-106.346000	86.815530	23.891050	45.366600	4.103430	68.047020	-3.641420	92.142850	707.239990	41.100000	
11.903000	-114.597000	86.831860	19.966050	50.190260	5.427470	65.980830	-3.649190	92.175670	707.239990	41.100000	
11.897000	-122.732000	86.806210	16.130520	54.628600	7.398640	63.324710	-3.651790	92.154750	707.229980	41.100000	
11.894000	-130.867000	86.747540	12.529510	58.831790	9.816620	60.022280	-3.586240	92.162380	707.289980	41.100000	
11.902000	-139.148000	86.637250	9.204050	62.501850	13.095620	55.605400	-3.618220	92.094850	707.250000	41.100000	
11.909000	-147.299000	86.611170	6.132240	65.652990	17.393410	51.287690	-3.617580	92.160880	707.340030	41.100000	
