FileType=PCF
NHL=14
Date=05/29/19	16:55:21
Facility=APL
Serial=16071-9
Customer=NASA
NP=6
Mach=0.550000
Calibration=1:1
CalPts=490
TstPts=95
PortNumbering=AP Standard
Units=Torr C m/s kg/m^3 deg mm 
Theta[deg]	Phi[deg]	P1[Torr]	P2[Torr]	P3[Torr]	P4[Torr]	P5[Torr]	P6[Torr]	Pt[Torr]	Ps[Abs,Torr]	Ts[C]	
0.000000	0.000000	161.823290	74.312410	77.491960	72.786930	75.426890	3.674230	161.670180	701.870000	43.300000	
1.691000	128.401000	161.851620	69.486570	82.212940	79.269810	68.474080	3.507180	161.739110	702.020020	43.300000	
1.692000	77.194000	161.901440	76.109310	75.543700	81.169370	67.005590	3.597090	161.796520	702.020020	43.300000	
1.699000	26.182000	161.942990	81.705960	70.331750	76.726430	71.517080	3.628700	161.826230	702.010010	43.300000	
1.699000	-26.182000	161.977600	81.447150	70.495810	69.400300	78.971370	3.600580	161.865720	701.679990	43.400000	
1.692000	-77.194000	161.994740	75.846640	75.765960	65.043350	82.882190	3.534780	161.882160	701.620000	43.400000	
1.691000	-128.401000	162.000780	69.266960	82.401230	66.215740	81.231320	3.435640	161.876250	701.919980	43.500000	
1.700000	180.000000	162.048720	66.358950	85.505970	72.456760	75.267110	3.438180	161.938600	701.280030	43.600000	
3.400000	180.000000	161.723560	58.156790	93.101570	71.771550	74.384980	2.879050	161.895710	701.979980	43.600000	
3.388000	-152.325000	161.771070	59.828320	91.169080	64.364620	81.740480	2.870800	161.919980	701.450010	43.600000	
3.397000	-124.529000	161.828110	64.579560	86.043550	59.467330	87.631590	2.911270	161.967360	701.190000	43.600000	
3.399000	-96.763000	161.895740	71.569890	78.878040	57.030590	90.411280	3.007270	162.013640	701.870000	43.600000	
3.394000	-69.283000	161.907350	79.177630	71.524780	58.097290	89.654870	3.092160	161.995900	701.489990	43.700000	
3.400000	-41.398000	161.951260	85.887370	65.280980	62.339550	85.346290	3.182270	162.045650	702.039980	43.700000	
3.401000	-14.021000	162.013350	89.657340	61.918790	68.921900	78.798390	3.241080	162.074510	702.030030	43.700000	
3.401000	14.021000	162.038330	89.879930	61.858010	76.898880	70.644360	3.286220	162.107330	701.969970	43.800000	
3.400000	41.398000	162.028180	86.421090	65.112170	83.859600	63.985360	3.234640	162.103090	702.099980	43.800000	
3.394000	69.283000	162.058760	80.054500	71.339980	88.299200	59.746770	3.216540	162.126310	702.020020	43.900000	
3.399000	96.763000	162.009460	72.306320	78.645530	89.162750	58.709310	3.111940	162.108900	701.960020	44.000000	
3.397000	124.529000	162.026320	65.342410	85.952060	86.339370	61.251940	3.080930	162.170700	702.049990	44.000000	
3.388000	152.325000	162.042360	60.264970	91.228740	80.075680	66.824820	2.984480	162.196790	701.960020	44.100000	
5.099000	161.165000	161.260010	51.196230	99.273290	79.163180	65.560680	2.281940	162.178570	701.909970	44.100000	
5.109000	142.013000	161.331150	55.131040	95.256740	87.020220	58.820450	2.326960	162.215330	701.979980	44.100000	
5.095000	123.033000	161.413250	61.015530	89.060850	92.624820	53.844900	2.457710	162.246000	702.039980	44.200000	
5.105000	104.191000	161.454100	67.924850	81.763790	95.980940	50.972710	2.437900	162.259800	702.060000	44.200000	
5.093000	85.207000	161.499500	75.705000	73.808490	96.759990	50.533470	2.432800	162.257770	702.039980	44.200000	
5.104000	66.290000	161.564180	83.623570	66.497630	94.746800	52.489280	2.504630	162.300840	702.039980	44.300000	
5.094000	47.331000	161.598080	90.118400	60.294750	90.280510	56.773310	2.616260	162.302920	702.020020	44.400000	
5.089000	28.397000	161.631130	94.883800	55.844920	84.010090	62.717650	2.642690	162.337170	702.020020	44.400000	
5.096000	9.576000	161.677140	97.476030	53.499430	76.307820	69.964610	2.648750	162.372700	702.000000	44.400000	
5.096000	-9.576000	161.709230	97.318100	53.633820	68.127450	78.408200	2.689780	162.392780	701.940000	44.400000	
5.089000	-28.397000	161.648850	94.389160	56.071780	61.047620	85.629140	2.650370	162.375720	701.969970	44.400000	
5.094000	-47.331000	161.631210	89.247560	60.595260	54.989140	91.907230	2.596630	162.385590	701.919980	44.500000	
5.104000	-66.290000	161.640500	82.548680	66.993790	50.683020	96.245320	2.564220	162.401870	701.950010	44.500000	
5.093000	-85.207000	161.588350	74.548580	74.385820	48.554230	97.996770	2.451830	162.414230	701.979980	44.600000	
5.105000	-104.191000	161.632260	67.075560	82.232600	48.640370	97.149370	2.376700	162.456130	701.960020	44.600000	
5.095000	-123.033000	161.632840	60.241660	89.501780	51.891270	93.714940	2.285190	162.473860	701.900020	44.600000	
5.109000	-142.013000	161.579180	54.716880	95.532800	57.405040	88.390740	2.279470	162.480000	701.989990	44.700000	
5.099000	-161.165000	161.633270	51.427510	99.553490	63.447780	81.306530	2.268700	162.537510	702.000000	44.700000	
5.100000	180.000000	161.636220	50.163630	100.781620	71.116160	73.513460	2.232030	162.544330	702.000000	44.700000	
6.800000	180.000000	160.434590	42.020280	107.682430	69.941020	72.102530	1.635290	162.560900	701.900020	44.600000	
6.796000	-166.229000	160.423600	42.613660	106.833400	62.676840	79.986020	1.676860	162.573270	702.099980	44.600000	
6.808000	-152.311000	160.428440	44.978450	103.917430	56.222720	87.149440	1.776690	162.548600	701.979980	44.500000	
6.795000	-138.383000	160.474300	49.153190	99.537290	49.482880	93.618870	1.783090	162.592610	702.030030	44.500000	
6.792000	-124.591000	160.564580	54.587310	93.416800	44.862700	98.928430	1.787480	162.655270	701.880000	44.500000	
6.787000	-110.754000	160.553180	60.890170	86.543660	41.482070	102.867520	1.867730	162.642490	701.950010	44.500000	
6.800000	-96.985000	160.507190	67.854650	79.030460	39.761940	105.029030	1.900320	162.597810	701.960020	44.600000	
6.800000	-83.015000	160.678630	75.443640	71.538400	40.183290	105.326100	1.988360	162.702360	701.979980	44.500000	
6.787000	-69.246000	160.628540	83.090330	64.269800	42.169390	103.429770	2.071190	162.645650	701.979980	44.500000	
6.792000	-55.409000	160.730390	90.006130	57.877630	45.732480	99.848910	2.156170	162.680820	701.989990	44.600000	
6.795000	-41.617000	160.769610	95.908020	52.592550	50.684930	94.670620	2.173120	162.655840	701.940000	44.500000	
6.808000	-27.689000	160.800920	100.969640	48.397060	56.807770	88.245310	2.227490	162.695920	702.039980	44.500000	
6.796000	-13.771000	160.866820	103.974460	45.865440	63.881720	81.048860	2.221350	162.703810	702.000000	44.500000	
6.800000	0.000000	160.906970	105.151260	45.071080	71.332480	73.066800	2.128020	162.742800	702.099980	44.500000	
6.796000	13.771000	160.887470	104.325110	45.759250	79.297490	65.446170	2.024350	162.746090	702.060000	44.500000	
6.808000	27.689000	160.863660	101.457100	48.135860	86.863750	58.392430	1.985120	162.750050	702.109990	44.500000	
6.795000	41.617000	160.866730	97.047850	52.120260	93.101190	52.426740	1.893940	162.771820	701.950010	44.500000	
6.792000	55.409000	160.878300	91.222370	57.482940	98.733490	47.802810	1.795710	162.814990	701.960020	44.600000	
6.787000	69.246000	160.872130	84.551010	63.841040	102.422970	44.465890	1.739800	162.813320	701.900020	44.600000	
6.800000	83.015000	160.882540	76.839090	71.007740	104.263210	42.710010	1.687570	162.851470	701.969970	44.600000	
6.800000	96.985000	160.871810	69.231320	78.607440	104.318510	42.518590	1.647410	162.866210	701.989990	44.600000	
6.787000	110.754000	160.828980	62.078750	86.190830	102.233990	44.120170	1.755800	162.848560	701.960020	44.600000	
6.792000	124.591000	160.799420	55.662930	93.226570	98.337520	47.184020	1.849440	162.858490	701.909970	44.600000	
6.795000	138.383000	160.809270	50.101550	99.474560	92.829110	51.911370	1.841620	162.893590	701.929990	44.600000	
6.808000	152.311000	160.802860	45.769950	103.947510	86.177730	57.862980	1.794400	162.941880	701.950010	44.600000	
6.796000	166.229000	160.761810	43.119440	106.836250	77.906180	64.717470	1.697960	162.889480	701.979980	44.700000	
8.491000	168.704000	159.045820	34.960430	113.779620	76.507750	62.990230	1.524100	162.929320	701.989990	44.700000	
8.502000	157.493000	159.030360	36.848230	111.370090	85.013890	55.880120	1.637790	162.937580	701.950010	44.700000	
8.494000	146.194000	159.066570	40.622570	107.221140	92.184490	49.518530	1.716910	162.908710	702.060000	44.700000	
8.495000	135.039000	159.116580	45.124310	102.164480	98.614810	44.208320	1.644290	162.917140	702.039980	44.700000	
8.487000	123.723000	159.139010	50.802570	95.745060	104.230110	39.652090	1.528960	162.951890	701.950010	44.700000	
8.492000	112.575000	159.149030	57.084780	88.689030	108.196300	36.430480	1.336480	162.916380	701.919980	44.700000	
8.510000	101.220000	159.237870	64.414000	80.945720	110.736550	34.536140	1.132440	162.989910	701.919980	44.700000	
8.500000	90.000000	159.301390	71.817390	73.196780	111.341490	34.218560	1.031560	162.959630	702.020020	44.700000	
8.510000	78.780000	159.327510	79.764980	65.622210	110.585860	34.817440	1.122310	162.964390	702.000000	44.800000	
8.492000	67.425000	159.339020	87.458880	58.467040	108.162660	37.058080	1.157830	162.971360	701.929990	44.800000	
8.487000	56.277000	159.396990	94.121480	52.276860	104.318620	40.584710	1.243450	162.993560	702.070010	44.800000	
8.495000	44.961000	159.446490	100.198400	46.808910	99.145100	45.118680	1.394200	163.001660	702.060000	44.900000	
8.494000	33.806000	159.483250	105.414510	42.422940	92.722160	50.593300	1.558860	163.036850	701.950010	44.900000	
8.502000	22.507000	159.458420	109.197430	38.982350	85.798840	56.971470	1.642650	162.990690	701.950010	44.900000	
8.491000	11.296000	159.531860	111.545170	37.211850	78.081170	64.176650	1.722470	163.055470	701.929990	45.000000	
8.500000	0.000000	159.557370	112.141580	36.700160	70.169540	71.874640	1.916360	163.053220	702.000000	45.000000	
8.491000	-11.296000	159.544130	111.206870	37.349750	62.485770	79.963580	2.060370	163.062450	702.070010	44.900000	
8.502000	-22.507000	159.548930	108.698910	39.328190	55.215910	87.476490	2.111190	163.092120	701.989990	45.000000	
8.494000	-33.806000	159.569610	104.520030	42.836810	48.648620	94.473060	2.101920	163.122280	702.020020	44.900000	
8.495000	-44.961000	159.488280	98.970180	47.335060	42.915070	100.743640	2.122810	163.107330	701.940000	44.900000	
8.487000	-56.277000	159.460560	92.638910	52.915870	38.112860	106.008490	2.138580	163.146290	702.010010	44.900000	
8.492000	-67.425000	159.370740	85.722270	59.243400	34.797060	109.781230	2.004010	163.127720	701.979980	44.900000	
8.510000	-78.780000	159.333890	77.836240	66.514370	32.824550	112.041810	1.903100	163.149370	702.070010	44.900000	
8.500000	-90.000000	159.301800	70.256430	74.050240	31.919510	112.487280	1.874610	163.108760	702.049990	44.900000	
8.510000	-101.220000	159.230130	62.899930	81.624710	31.796300	111.661160	1.855930	163.126890	702.039980	44.800000	
8.492000	-112.575000	159.284740	55.883500	89.347350	33.851220	108.998300	1.751540	163.155930	702.039980	44.800000	
8.487000	-123.723000	159.315630	49.539690	96.218580	37.218460	104.772150	1.653700	163.144470	702.039980	44.800000	
8.495000	-135.039000	159.313750	44.184170	102.845140	41.756760	99.427230	1.620560	163.169460	701.940000	44.800000	
8.494000	-146.194000	159.301190	39.864300	107.760560	47.801580	93.132180	1.598900	163.124660	701.909970	44.900000	
8.502000	-157.493000	159.234240	36.409050	111.661450	54.637430	86.039470	1.581160	163.119740	701.989990	44.900000	
8.491000	-168.704000	159.243300	34.707630	114.080910	61.774120	78.543240	1.499100	163.153930	701.989990	44.900000	
8.500000	180.000000	159.281010	34.269130	114.960910	68.768220	70.603770	1.479840	163.187810	701.989990	44.900000	
10.200000	180.000000	157.030940	25.683810	121.204990	67.301120	68.557690	1.764760	163.197080	701.979980	44.900000	
10.191000	-170.497000	157.055970	26.100150	120.527500	59.824380	76.387080	1.810290	163.194230	701.880000	44.900000	
10.210000	-161.034000	157.016250	27.400050	118.659360	52.482480	84.355780	1.864780	163.183900	701.870000	44.900000	
10.194000	-151.526000	156.985860	30.042230	115.285940	45.620550	91.845820	1.866380	163.155030	701.989990	45.000000	
10.190000	-142.105000	157.072450	33.946120	110.720600	39.643730	98.647830	1.851560	163.226990	701.979980	45.000000	
10.215000	-132.646000	157.010960	38.444100	105.208530	34.351880	104.777670	1.922250	163.173310	701.950010	45.000000	
10.203000	-123.092000	157.045810	44.078030	98.451840	30.091510	110.266670	1.976850	163.168700	701.909970	45.000000	
10.192000	-113.678000	157.050600	50.336920	91.322940	25.977250	114.403720	2.148640	163.224150	701.909970	45.000000	
10.208000	-104.249000	157.031650	57.323940	83.711170	23.502120	117.240260	2.177900	163.200290	701.890010	45.000000	
10.210000	-94.801000	156.996720	64.577260	75.931340	22.477280	118.930960	2.234130	163.208210	701.960020	45.000000	
10.210000	-85.199000	157.082550	72.066190	68.310610	23.037210	119.121930	2.241320	163.186540	702.049990	45.000000	
10.208000	-75.751000	157.098390	79.892940	60.833860	23.954030	117.984110	2.294270	163.206860	702.000000	45.000000	
10.192000	-66.322000	157.166670	87.604350	53.840440	26.530130	115.466010	2.376890	163.205440	701.919980	45.100000	
10.203000	-56.908000	157.242780	94.572560	47.517660	30.229380	111.664210	2.444760	163.203780	702.060000	45.200000	
10.215000	-47.354000	157.281880	101.407910	41.534250	34.826320	106.466800	2.438170	163.196820	701.969970	45.200000	
10.190000	-37.895000	157.444520	107.249360	36.694210	40.238530	100.258230	2.413810	163.202560	701.989990	45.300000	
10.194000	-28.474000	157.542860	112.052450	33.382070	46.563720	93.453090	2.407390	163.251970	701.969970	45.300000	
10.210000	-18.966000	157.544970	115.696620	30.532730	53.506070	85.980800	2.358280	163.241350	701.940000	45.400000	
10.191000	-9.503000	157.551770	117.855680	28.990220	60.932290	78.029250	2.260250	163.216480	702.000000	45.400000	
10.200000	0.000000	157.576890	118.821760	28.522160	68.626870	70.113170	2.136770	163.223100	701.870000	45.400000	
10.191000	9.503000	157.588330	118.282040	28.865300	76.441720	62.480320	1.961250	163.276250	701.900020	45.300000	
10.210000	18.966000	157.479610	116.500590	30.129030	84.341910	55.130020	1.818230	163.252660	701.890010	45.300000	
10.194000	28.474000	157.513790	113.211730	32.920330	91.718810	48.463620	1.664310	163.274190	701.950010	45.300000	
10.190000	37.895000	157.494660	108.749040	36.333370	98.598040	42.344010	1.496180	163.273360	701.979980	45.300000	
10.215000	47.354000	157.499690	103.078670	41.247150	104.860600	37.206710	1.347920	163.323780	702.010010	45.300000	
10.203000	56.908000	157.401660	96.589170	46.925360	109.952050	33.020260	1.177290	163.264110	701.940000	45.300000	
10.192000	66.322000	157.450490	89.757510	53.163680	113.995190	29.797540	1.115090	163.342300	701.989990	45.300000	
10.208000	75.751000	157.368800	82.229960	60.046940	116.957890	27.382620	1.010740	163.274990	702.109990	45.300000	
10.210000	85.199000	157.387920	74.286770	67.501850	118.333210	26.403310	0.969920	163.281480	701.960020	45.400000	
10.210000	94.801000	157.394030	66.561780	75.300600	118.395910	26.226040	1.005120	163.348070	701.870000	45.400000	
10.208000	104.249000	157.341750	59.144780	83.172740	116.875030	27.110940	1.144430	163.342500	701.849980	45.400000	
10.192000	113.678000	157.299760	52.094860	90.940960	113.888810	29.144800	1.257500	163.312030	701.979980	45.400000	
10.203000	123.092000	157.272600	45.802100	98.125650	109.783650	32.105920	1.416230	163.331680	701.929990	45.400000	
10.215000	132.646000	157.266160	39.857860	104.739270	104.556580	36.062870	1.699890	163.343120	702.039980	45.400000	
10.190000	142.105000	157.167010	34.879840	110.307600	98.056900	41.247420	1.986950	163.333710	701.969970	45.400000	
10.194000	151.526000	157.190510	30.972310	115.013290	91.059730	47.280440	2.134630	163.379530	701.919980	45.400000	
10.210000	161.034000	157.133760	28.000240	118.562240	83.479360	53.959880	1.981930	163.345870	701.919980	45.300000	
10.191000	170.497000	157.205930	26.506280	120.517400	74.999350	61.059510	1.802820	163.322370	701.989990	45.300000	
11.899000	171.783000	154.438750	16.766860	126.697250	73.028020	58.781140	2.302900	163.343810	701.840030	45.300000	
11.890000	163.610000	154.363750	18.157910	124.716600	80.616930	51.746450	2.442240	163.316960	701.950010	45.200000	
11.889000	155.445000	154.337910	21.167450	121.641300	89.235360	44.700930	2.649540	163.333110	701.969970	45.200000	
11.909000	147.299000	154.326280	24.734050	117.722310	96.326230	38.294380	2.686850	163.359920	702.030030	45.200000	
11.902000	139.148000	154.412660	29.128340	112.562860	103.634700	32.946280	2.180950	163.360410	702.010010	45.200000	
11.894000	130.867000	154.520360	34.298190	106.509370	109.643390	28.280420	1.918340	163.358460	702.049990	45.200000	
11.897000	122.732000	154.473270	40.291980	99.834110	114.898610	24.305280	1.642560	163.339830	701.960020	45.200000	
11.903000	114.597000	154.470090	46.574580	92.548140	119.189230	21.289370	1.588330	163.347260	702.049990	45.200000	
11.893000	106.346000	154.550260	53.526630	84.747420	122.114240	19.290040	1.523820	163.329120	702.039980	45.200000	
11.892000	98.155000	154.692690	60.933370	76.772850	124.138720	18.259610	1.469090	163.403610	702.039980	45.200000	
11.900000	90.000000	154.728300	68.463870	69.170170	124.798730	18.073260	1.409550	163.377410	701.950010	45.300000	
11.892000	81.845000	154.748930	75.981310	61.684640	124.218730	18.569410	1.327690	163.382430	701.940000	45.300000	
11.893000	73.654000	154.752880	84.215870	54.211770	122.227800	19.954800	1.419360	163.382340	701.919980	45.300000	
11.903000	65.403000	154.753540	91.775380	47.355840	119.407250	22.333450	1.504210	163.400830	701.919980	45.400000	
11.897000	57.268000	154.782850	98.617210	41.141680	115.085700	25.640660	1.599850	163.361430	701.969970	45.400000	
11.894000	49.133000	154.822330	105.470100	35.505310	109.760080	29.742240	1.734460	163.352460	702.000000	45.400000	
11.902000	40.852000	154.933180	111.390310	30.684680	103.811260	34.502040	1.895430	163.400250	701.929990	45.300000	
11.909000	32.701000	154.905200	116.324480	26.601170	96.929120	39.866920	2.020770	163.398530	702.049990	45.300000	
11.889000	24.555000	154.986830	120.136420	23.589790	89.976200	46.350850	2.160100	163.408870	702.039980	45.300000	
11.890000	16.390000	155.067400	123.140010	21.187470	82.364730	53.312040	2.327520	163.466640	702.020020	45.200000	
11.899000	8.217000	155.037870	125.026860	19.567860	74.330740	60.472780	2.450990	163.422390	702.060000	45.300000	
11.900000	0.000000	155.065230	125.508420	19.477910	66.499230	68.138530	2.617660	163.444790	701.880000	45.300000	
11.899000	-8.217000	154.999680	124.644400	19.660480	58.797600	75.973500	2.671630	163.401550	702.020020	45.300000	
11.890000	-16.390000	155.027210	122.384510	21.122760	51.426760	84.190890	2.703340	163.427930	701.969970	45.300000	
11.889000	-24.555000	154.996780	119.194470	23.303000	44.332290	91.671300	2.810770	163.445160	701.950010	45.300000	
11.909000	-32.701000	154.954650	114.956010	25.973260	37.638300	99.023020	2.847650	163.463760	702.020020	45.400000	
11.902000	-40.852000	154.845020	109.690360	30.888550	31.653840	105.674720	2.924510	163.475190	701.929990	45.300000	
11.894000	-49.133000	154.766560	103.402540	36.093980	26.173620	111.880200	2.978500	163.486010	702.000000	45.300000	
11.897000	-57.268000	154.717350	96.471180	41.862490	21.178210	116.898060	2.916020	163.492860	701.969970	45.200000	
11.903000	-65.403000	154.624850	89.466830	48.093650	17.630620	120.807300	2.822750	163.520360	701.960020	45.300000	
11.893000	-73.654000	154.562180	81.414180	55.185380	15.283160	123.689630	2.797820	163.513960	702.020020	45.300000	
11.892000	-81.845000	154.526790	73.561230	62.630720	14.075940	125.485050	2.778530	163.529190	701.969970	45.300000	
11.900000	-90.000000	154.480820	66.234210	69.943040	13.402860	125.939760	2.738050	163.540270	701.940000	45.400000	
11.892000	-98.155000	154.432020	58.550200	77.728440	13.749050	125.077020	2.752940	163.526490	701.950010	45.400000	
11.893000	-106.346000	154.466750	51.411210	85.629130	15.177720	122.878110	2.759000	163.574370	702.020020	45.400000	
11.903000	-114.597000	154.488450	44.597620	93.287470	17.575690	119.602590	2.745400	163.513000	702.070010	45.300000	
