FileType=PCF
NHL=14
Date=03/14/19	10:10:36
Facility=APL
Serial=16071-9
Customer=NASA
NP=6
Mach=0.150000
Calibration=1:1
CalPts=490
TstPts=95
PortNumbering=AP Standard
Units=Torr C m/s kg/m^3 deg mm 
Theta[deg]	Phi[deg]	P1[Torr]	P2[Torr]	P3[Torr]	P4[Torr]	P5[Torr]	P6[Torr]	Pt[Torr]	Ps[Abs,Torr]	Ts[C]	
  0.000	  0.000	 10.95148	  4.50875	  4.66630	  4.58680	  4.50259	  0.17197	 10.96943	709.34003	 19.30	
  1.691	128.401	 10.94507	  4.14603	  5.01344	  5.02285	  4.04179	  0.15589	 10.96569	709.39001	 19.30	
  1.692	 77.194	 10.94900	  4.63228	  4.52064	  5.13441	  3.94582	  0.17781	 10.96859	709.50000	 19.30	
  1.699	 26.182	 10.95151	  5.03989	  4.13362	  4.81827	  4.25481	  0.18706	 10.97136	709.44000	 19.30	
  1.699	-26.182	 10.95275	  5.03024	  4.14468	  4.31623	  4.76755	  0.17586	 10.97078	709.53998	 19.30	
  1.692	-77.194	 10.95059	  4.61439	  4.54210	  4.01868	  5.07690	  0.15762	 10.96780	709.48999	 19.30	
  1.691	-128.401	 10.95307	  4.13582	  5.02854	  4.12879	  4.95427	  0.14173	 10.97004	709.45001	 19.30	
  1.700	180.000	 10.94594	  3.93017	  5.24999	  4.58092	  4.47954	  0.14034	 10.96603	709.51001	 19.30	
  3.400	180.000	 10.92422	  3.35129	  5.82190	  4.54020	  4.42890	  0.08971	 10.96597	709.42999	 19.30	
  3.388	-152.325	 10.92361	  3.45932	  5.68228	  4.01588	  4.97364	  0.08733	 10.96193	709.38000	 19.30	
  3.397	-124.529	 10.93062	  3.79029	  5.30161	  3.61221	  5.41093	  0.09693	 10.96460	709.45001	 19.30	
  3.399	-96.763	 10.93483	  4.29134	  4.77162	  3.41500	  5.65752	  0.10395	 10.96834	709.40002	 19.30	
  3.394	-69.283	 10.93663	  4.83296	  4.23528	  3.46574	  5.60477	  0.12486	 10.96724	709.41998	 19.40	
  3.400	-41.398	 10.93480	  5.31868	  3.78887	  3.76287	  5.28301	  0.14959	 10.96734	709.41998	 19.40	
  3.401	-14.021	 10.93701	  5.60421	  3.53146	  4.23303	  4.77423	  0.17735	 10.96788	709.40002	 19.40	
  3.401	 14.021	 10.92991	  5.63998	  3.50456	  4.78206	  4.20868	  0.17998	 10.96222	709.34003	 19.40	
  3.400	 41.398	 10.93316	  5.36471	  3.75034	  5.27890	  3.73010	  0.18205	 10.96914	709.46997	 19.40	
  3.394	 69.283	 10.93197	  4.86134	  4.20467	  5.63711	  3.40328	  0.16304	 10.96797	709.40997	 19.40	
  3.399	 96.763	 10.92193	  4.30830	  4.74048	  5.72681	  3.33864	  0.14960	 10.96156	709.44000	 19.40	
  3.397	124.529	 10.92512	  3.79872	  5.27372	  5.51900	  3.51619	  0.12851	 10.96534	709.53998	 19.40	
  3.388	152.325	 10.92402	  3.47118	  5.66621	  5.06478	  3.91417	  0.12747	 10.96666	709.45001	 19.40	
  5.099	161.165	 10.86585	  2.82149	  6.26978	  5.03566	  3.79898	  0.04831	 10.96711	709.38000	 19.40	
  5.109	142.013	 10.86945	  3.06950	  5.95681	  5.58193	  3.29713	  0.07177	 10.96941	709.38000	 19.40	
  5.095	123.033	 10.87320	  3.46122	  5.49226	  6.00993	  2.94633	  0.09510	 10.97102	709.48999	 19.40	
  5.105	104.191	 10.87022	  3.96213	  4.95720	  6.24325	  2.74830	  0.10909	 10.96720	709.44000	 19.40	
  5.093	 85.207	 10.87650	  4.53490	  4.36621	  6.28660	  2.71844	  0.12668	 10.97169	709.40002	 19.40	
  5.104	 66.290	 10.87678	  5.11307	  3.82030	  6.12848	  2.84774	  0.12860	 10.97164	709.40002	 19.50	
  5.094	 47.331	 10.87739	  5.63367	  3.35176	  5.76657	  3.16247	  0.14132	 10.96988	709.50000	 19.50	
  5.089	 28.397	 10.88701	  6.00452	  3.05933	  5.27558	  3.61014	  0.15447	 10.97257	709.40997	 19.50	
  5.096	  9.576	 10.88010	  6.20279	  2.89200	  4.70544	  4.13830	  0.14725	 10.96773	709.46002	 19.50	
  5.096	 -9.576	 10.88215	  6.18071	  2.90976	  4.13771	  4.71691	  0.13365	 10.96563	709.35999	 19.50	
  5.089	-28.397	 10.88680	  5.96115	  3.09207	  3.60640	  5.29310	  0.11149	 10.97098	709.45001	 19.50	
  5.094	-47.331	 10.88702	  5.56277	  3.42637	  3.17856	  5.77543	  0.09021	 10.97253	709.41998	 19.50	
  5.104	-66.290	 10.88011	  5.05208	  3.88964	  2.91463	  6.07847	  0.07244	 10.95893	709.46002	 19.50	
  5.093	-85.207	 10.88035	  4.48041	  4.43982	  2.81037	  6.21120	  0.05252	 10.96538	709.48999	 19.50	
  5.105	-104.191	 10.87794	  3.93296	  4.99513	  2.84969	  6.15316	  0.03621	 10.96301	709.46997	 19.50	
  5.095	-123.033	 10.88426	  3.42169	  5.54791	  3.06305	  5.87803	  0.03238	 10.96883	709.45001	 19.50	
  5.109	-142.013	 10.87669	  3.01580	  6.01054	  3.41864	  5.45604	  0.02389	 10.96889	709.40002	 19.50	
  5.099	-161.165	 10.86740	  2.80041	  6.26949	  3.91085	  4.91409	  0.03640	 10.96127	709.50000	 19.50	
  5.100	180.000	 10.86946	  2.73519	  6.37027	  4.48213	  4.33541	  0.04411	 10.96570	709.45001	 19.50	
  6.800	180.000	 10.76998	  2.06464	  6.92171	  4.36265	  4.20303	 -0.04482	 10.96874	709.53998	 19.50	
  6.796	-166.229	 10.77300	  2.11058	  6.85032	  3.80115	  4.77514	 -0.05283	 10.96315	709.46997	 19.60	
  6.808	-152.311	 10.77599	  2.26523	  6.63923	  3.28177	  5.34235	 -0.05240	 10.96669	709.28003	 19.60	
  6.795	-138.383	 10.77830	  2.54395	  6.29852	  2.85354	  5.84050	 -0.05610	 10.96081	709.34003	 19.60	
  6.792	-124.591	 10.78471	  2.93003	  5.84793	  2.51672	  6.26018	 -0.05986	 10.96718	709.34003	 19.60	
  6.787	-110.754	 10.78755	  3.40545	  5.31783	  2.28287	  6.56817	 -0.05939	 10.96431	709.37000	 19.60	
  6.800	-96.985	 10.78622	  3.93677	  4.75779	  2.16204	  6.73917	 -0.05335	 10.96318	709.40997	 19.60	
  6.800	-83.015	 10.79198	  4.50539	  4.19291	  2.16448	  6.75882	 -0.04304	 10.96332	709.48999	 19.60	
  6.787	-69.246	 10.78717	  5.06805	  3.66122	  2.27858	  6.62252	 -0.02711	 10.96024	709.39001	 19.60	
  6.792	-55.409	 10.79174	  5.61128	  3.18590	  2.50163	  6.35034	 -0.00511	 10.96368	709.39001	 19.60	
  6.795	-41.617	 10.79184	  6.06826	  2.80157	  2.82544	  5.96909	  0.01327	 10.96376	709.45001	 19.60	
  6.808	-27.689	 10.78891	  6.44268	  2.49222	  3.24858	  5.47166	  0.03676	 10.96663	709.41998	 19.60	
  6.796	-13.771	 10.78525	  6.67500	  2.31464	  3.75810	  4.90897	  0.05862	 10.96189	709.45001	 19.60	
  6.800	  0.000	 10.78732	  6.76607	  2.25083	  4.31028	  4.33580	  0.06297	 10.96441	709.40997	 19.60	
  6.796	 13.771	 10.78317	  6.70223	  2.29859	  4.87370	  3.78327	  0.07868	 10.96135	709.38000	 19.60	
  6.808	 27.689	 10.77894	  6.49229	  2.45656	  5.44330	  3.25554	  0.08349	 10.96041	709.34998	 19.60	
  6.795	 41.617	 10.77538	  6.14737	  2.72395	  5.95057	  2.81710	  0.07370	 10.96377	709.46997	 19.60	
  6.792	 55.409	 10.77142	  5.69418	  3.10097	  6.36290	  2.47225	  0.06626	 10.96089	709.37000	 19.70	
  6.787	 69.246	 10.77678	  5.16285	  3.58122	  6.66067	  2.23402	  0.06522	 10.97125	709.39001	 19.70	
  6.800	 83.015	 10.76656	  4.58955	  4.10593	  6.81902	  2.09639	  0.04918	 10.96254	709.32001	 19.70	
  6.800	 96.985	 10.76616	  4.01602	  4.68063	  6.82594	  2.08363	  0.02908	 10.96375	709.40002	 19.70	
  6.787	110.754	 10.76537	  3.48261	  5.25086	  6.67556	  2.19455	  0.01743	 10.96576	709.34003	 19.70	
  6.792	124.591	 10.75697	  3.00252	  5.77460	  6.39744	  2.40121	  0.00944	 10.96006	709.39001	 19.70	
  6.795	138.383	 10.75365	  2.61580	  6.22865	  5.99615	  2.72396	 -0.00877	 10.96091	709.29999	 19.70	
  6.808	152.311	 10.75610	  2.31681	  6.60053	  5.49504	  3.14762	 -0.02696	 10.95983	709.34998	 19.70	
  6.796	166.229	 10.75942	  2.13556	  6.82596	  4.92866	  3.65718	 -0.03465	 10.96002	709.38000	 19.70	
  8.491	168.704	 10.60653	  1.44106	  7.35729	  4.80988	  3.47331	 -0.13150	 10.95525	709.39001	 19.70	
  8.502	157.493	 10.61152	  1.59008	  7.17151	  5.40049	  2.94405	 -0.13112	 10.96549	709.32001	 19.70	
  8.494	146.194	 10.61198	  1.84806	  6.85070	  5.95137	  2.48273	 -0.11979	 10.96313	709.40997	 19.70	
  8.495	135.039	 10.61422	  2.18133	  6.44342	  6.42712	  2.10304	 -0.10127	 10.96257	709.39001	 19.70	
  8.487	123.723	 10.61763	  2.59129	  5.95335	  6.83182	  1.78912	 -0.08411	 10.96392	709.40002	 19.70	
  8.492	112.575	 10.61492	  3.05806	  5.41196	  7.12943	  1.56702	 -0.08892	 10.96162	709.41998	 19.70	
  8.510	101.220	 10.61331	  3.59980	  4.82560	  7.31887	  1.43068	 -0.08173	 10.95593	709.39001	 19.70	
  8.500	 90.000	 10.61997	  4.17092	  4.24440	  7.37860	  1.39877	 -0.06778	 10.96182	709.42999	 19.70	
  8.510	 78.780	 10.61919	  4.75811	  3.68032	  7.31037	  1.45684	 -0.05013	 10.95977	709.42999	 19.80	
  8.492	 67.425	 10.62906	  5.35523	  3.14652	  7.10688	  1.62578	 -0.03720	 10.96476	709.34998	 19.80	
  8.487	 56.277	 10.63158	  5.89483	  2.68583	  6.79446	  1.88404	 -0.03392	 10.96304	709.40997	 19.80	
  8.495	 44.961	 10.63668	  6.37760	  2.28973	  6.38128	  2.21951	 -0.02739	 10.96380	709.47998	 19.80	
  8.494	 33.806	 10.64019	  6.76977	  1.99129	  5.90147	  2.61999	 -0.00918	 10.96212	709.45001	 19.80	
  8.502	 22.507	 10.64189	  7.07373	  1.75498	  5.34404	  3.10467	 -0.00400	 10.96453	709.45001	 19.80	
  8.491	 11.296	 10.65060	  7.24640	  1.63074	  4.75925	  3.65344	 -0.01114	 10.96492	709.54999	 19.80	
  8.500	  0.000	 10.64949	  7.30407	  1.59121	  4.17885	  4.21621	 -0.02270	 10.95979	709.46997	 19.80	
  8.491	-11.296	 10.65018	  7.22446	  1.64194	  3.60337	  4.81206	 -0.03209	 10.96255	709.34998	 19.80	
  8.502	-22.507	 10.65065	  7.01987	  1.78619	  3.06556	  5.39331	 -0.05393	 10.96481	709.38000	 19.80	
  8.494	-33.806	 10.65172	  6.69580	  2.03439	  2.60167	  5.92584	 -0.07715	 10.96523	709.40997	 19.80	
  8.495	-44.961	 10.65148	  6.28169	  2.35704	  2.20275	  6.40055	 -0.09929	 10.96181	709.35999	 19.80	
  8.487	-56.277	 10.65051	  5.77830	  2.76212	  1.87704	  6.79763	 -0.11138	 10.96014	709.40002	 19.80	
  8.492	-67.425	 10.65201	  5.23843	  3.22854	  1.64569	  7.08588	 -0.13495	 10.96770	709.42999	 19.80	
  8.510	-78.780	 10.64593	  4.64384	  3.76845	  1.49761	  7.26441	 -0.15251	 10.96208	709.34003	 19.80	
  8.500	-90.000	 10.64484	  4.06230	  4.33594	  1.45824	  7.30286	 -0.15443	 10.96377	709.40002	 19.80	
  8.510	-101.220	 10.64132	  3.49401	  4.91683	  1.50192	  7.22616	 -0.15546	 10.96419	709.45001	 19.80	
  8.492	-112.575	 10.64263	  2.95747	  5.50407	  1.65629	  7.00638	 -0.16416	 10.96392	709.40997	 19.90	
  8.487	-123.723	 10.64842	  2.49258	  6.03903	  1.89186	  6.69102	 -0.16334	 10.96693	709.40002	 19.90	
  8.495	-135.039	 10.64100	  2.08259	  6.52149	  2.22113	  6.26466	 -0.15452	 10.96232	709.42999	 19.90	
  8.494	-146.194	 10.63441	  1.76451	  6.91271	  2.62585	  5.76803	 -0.15448	 10.96107	709.28998	 19.90	
  8.502	-157.493	 10.62879	  1.53758	  7.21373	  3.10237	  5.21721	 -0.15762	 10.95982	709.29999	 19.90	
  8.491	-168.704	 10.62532	  1.40735	  7.38772	  3.64974	  4.62542	 -0.15629	 10.96379	709.41998	 19.90	
  8.500	180.000	 10.61502	  1.37497	  7.44330	  4.22932	  4.03450	 -0.14665	 10.96272	709.44000	 19.90	
 10.200	180.000	 10.43645	  0.71999	  7.93171	  4.07906	  3.85750	 -0.24576	 10.96345	709.40997	 19.90	
 10.191	-170.497	 10.45129	  0.74660	  7.89148	  3.49111	  4.45903	 -0.25859	 10.96865	709.40997	 19.90	
 10.210	-161.034	 10.45162	  0.84496	  7.74341	  2.92973	  5.05678	 -0.25769	 10.96591	709.45001	 19.90	
 10.194	-151.526	 10.45851	  1.03316	  7.48449	  2.43267	  5.63114	 -0.25549	 10.96284	709.51001	 19.90	
 10.190	-142.105	 10.46012	  1.29040	  7.13944	  1.98034	  6.16989	 -0.25120	 10.96507	709.41998	 19.90	
 10.215	-132.646	 10.46348	  1.62353	  6.71278	  1.58669	  6.66929	 -0.25731	 10.96811	709.42999	 19.90	
 10.203	-123.092	 10.46077	  2.04164	  6.19898	  1.27205	  7.09255	 -0.26027	 10.96304	709.40997	 19.90	
 10.192	-113.678	 10.46723	  2.51785	  5.65738	  1.05143	  7.41434	 -0.25620	 10.96455	709.40002	 19.90	
 10.208	-104.249	 10.46374	  3.03245	  5.08043	  0.88986	  7.64712	 -0.25019	 10.96397	709.34003	 19.90	
 10.210	-94.801	 10.47040	  3.59523	  4.48526	  0.81034	  7.77979	 -0.25350	 10.96848	709.34003	 19.90	
 10.210	-85.199	 10.46991	  4.18605	  3.88986	  0.80406	  7.79898	 -0.25614	 10.96768	709.31000	 19.90	
 10.208	-75.751	 10.47188	  4.78523	  3.32502	  0.87766	  7.71201	 -0.25088	 10.96276	709.31000	 19.90	
 10.192	-66.322	 10.47185	  5.37002	  2.79689	  1.03004	  7.50998	 -0.24048	 10.96160	709.34003	 19.90	
 10.203	-56.908	 10.47639	  5.93286	  2.32464	  1.25144	  7.22849	 -0.22695	 10.96519	709.28003	 19.90	
 10.215	-47.354	 10.47493	  6.44898	  1.90639	  1.55623	  6.83306	 -0.21858	 10.96021	709.37000	 20.00	
 10.190	-37.895	 10.47643	  6.90670	  1.56009	  1.93947	  6.35992	 -0.19965	 10.96094	709.34003	 20.00	
 10.194	-28.474	 10.47594	  7.28213	  1.28380	  2.37940	  5.83614	 -0.17096	 10.96565	709.34998	 20.00	
 10.210	-18.966	 10.47343	  7.56516	  1.07976	  2.86992	  5.27341	 -0.14801	 10.96595	709.34003	 20.00	
 10.191	 -9.503	 10.47024	  7.73394	  0.96412	  3.41957	  4.67712	 -0.13146	 10.96258	709.31000	 20.00	
 10.200	  0.000	 10.47324	  7.80751	  0.91996	  4.00552	  4.07313	 -0.12313	 10.96607	709.38000	 20.00	
 10.191	  9.503	 10.47122	  7.76085	  0.95484	  4.59393	  3.50061	 -0.10952	 10.96262	709.33002	 20.00	
 10.210	 18.966	 10.46478	  7.61703	  1.05372	  5.19472	  2.94078	 -0.10154	 10.96535	709.37000	 20.00	
 10.194	 28.474	 10.46077	  7.35428	  1.24120	  5.77558	  2.42552	 -0.10238	 10.96572	709.29999	 20.00	
 10.190	 37.895	 10.46381	  7.01140	  1.50504	  6.30859	  1.99163	 -0.11640	 10.97017	709.40002	 20.00	
 10.215	 47.354	 10.45165	  6.57467	  1.82842	  6.79432	  1.58863	 -0.14344	 10.96480	709.38000	 20.00	
 10.203	 56.908	 10.43959	  6.05886	  2.23005	  7.20371	  1.25732	 -0.16033	 10.95743	709.34998	 20.00	
 10.192	 66.322	 10.44353	  5.50832	  2.69875	  7.52962	  1.01659	 -0.15868	 10.96897	709.44000	 20.00	
 10.208	 75.751	 10.44003	  4.91781	  3.21770	  7.75768	  0.83900	 -0.16049	 10.96840	709.38000	 20.00	
 10.210	 85.199	 10.43050	  4.31475	  3.77619	  7.86873	  0.74461	 -0.17477	 10.95987	709.41998	 20.00	
 10.210	 94.801	 10.43164	  3.72171	  4.36950	  7.87799	  0.73317	 -0.19432	 10.96665	709.35999	 20.00	
 10.208	104.249	 10.42868	  3.14811	  4.96403	  7.77457	  0.79527	 -0.20431	 10.96409	709.34003	 20.00	
 10.192	113.678	 10.42115	  2.62616	  5.54305	  7.55258	  0.94241	 -0.19936	 10.96001	709.39001	 20.00	
 10.203	123.092	 10.42818	  2.15818	  6.09851	  7.25215	  1.16336	 -0.19589	 10.96251	709.38000	 20.00	
 10.215	132.646	 10.42895	  1.73332	  6.61830	  6.85261	  1.46198	 -0.20655	 10.97142	709.32001	 20.00	
 10.190	142.105	 10.42515	  1.38719	  7.06122	  6.36919	  1.83858	 -0.21739	 10.96505	709.31000	 20.00	
 10.194	151.526	 10.42058	  1.10800	  7.42204	  5.85133	  2.24782	 -0.23535	 10.96533	709.44000	 20.00	
 10.210	161.034	 10.42297	  0.89707	  7.69753	  5.26858	  2.74471	 -0.23479	 10.96270	709.31000	 20.00	
 10.191	170.497	 10.43149	  0.77774	  7.86494	  4.67141	  3.28823	 -0.23592	 10.96211	709.26001	 20.10	
 11.899	171.783	 10.21017	  0.12621	  8.33495	  4.49605	  3.08462	 -0.33373	 10.96846	709.29999	 20.10	
 11.890	163.610	 10.20074	  0.23303	  8.17915	  5.09704	  2.53480	 -0.33487	 10.96601	709.40002	 20.10	
 11.889	155.445	 10.19511	  0.40746	  7.93108	  5.68847	  2.02954	 -0.33910	 10.95965	709.22998	 20.10	
 11.909	147.299	 10.19301	  0.63785	  7.61573	  6.24013	  1.58567	 -0.33652	 10.96487	709.34003	 20.10	
 11.902	139.148	 10.19617	  0.93494	  7.21165	  6.75771	  1.19137	 -0.32179	 10.96734	709.38000	 20.10	
 11.894	130.867	 10.19967	  1.30059	  6.73630	  7.23253	  0.83880	 -0.31267	 10.96569	709.32001	 20.10	
 11.897	122.732	 10.20240	  1.72100	  6.21507	  7.62827	  0.56308	 -0.30210	 10.96779	709.40997	 20.10	
 11.903	114.597	 10.19824	  2.18278	  5.65701	  7.93507	  0.35383	 -0.31336	 10.96015	709.21002	 20.10	
 11.893	106.346	 10.20548	  2.70489	  5.07141	  8.16451	  0.21072	 -0.32024	 10.96598	709.31000	 20.10	
 11.892	 98.155	 10.20995	  3.26974	  4.46820	  8.30057	  0.12697	 -0.32251	 10.96205	709.35999	 20.10	
 11.900	 90.000	 10.21511	  3.84249	  3.87760	  8.34483	  0.09977	 -0.30678	 10.96520	709.34998	 20.10	
 11.892	 81.845	 10.21523	  4.43438	  3.30696	  8.29203	  0.14252	 -0.28826	 10.96613	709.26001	 20.10	
 11.893	 73.654	 10.21603	  5.04227	  2.75554	  8.14139	  0.24973	 -0.28232	 10.96326	709.27002	 20.10	
 11.903	 65.403	 10.21814	  5.63953	  2.24333	  7.90318	  0.42509	 -0.28813	 10.96526	709.40997	 20.10	
 11.897	 57.268	 10.21898	  6.19645	  1.78466	  7.57793	  0.66310	 -0.28601	 10.96119	709.34003	 20.10	
 11.894	 49.133	 10.22821	  6.71906	  1.37830	  7.17553	  0.96568	 -0.27229	 10.96644	709.35999	 20.10	
 11.902	 40.852	 10.23219	  7.19115	  1.03265	  6.69103	  1.34303	 -0.24011	 10.96614	709.40997	 20.10	
 11.909	 32.701	 10.24343	  7.58150	  0.75094	  6.16702	  1.76755	 -0.21227	 10.96777	709.31000	 20.10	
 11.889	 24.555	 10.24443	  7.87935	  0.53898	  5.60743	  2.23790	 -0.20321	 10.96242	709.33002	 20.10	
 11.890	 16.390	 10.24998	  8.10532	  0.38865	  5.01498	  2.75984	 -0.20664	 10.96479	709.28003	 20.20	
 11.899	  8.217	 10.25467	  8.24456	  0.29742	  4.41172	  3.32119	 -0.21523	 10.96612	709.29999	 20.10	
 11.900	  0.000	 10.25349	  8.27351	  0.26947	  3.81837	  3.89861	 -0.22345	 10.96388	709.22998	 20.20	
 11.899	 -8.217	 10.25859	  8.21258	  0.30832	  3.22853	  4.50909	 -0.23276	 10.96154	709.39001	 20.20	
 11.890	-16.390	 10.25867	  8.05279	  0.41560	  2.67242	  5.11199	 -0.24804	 10.96388	709.40002	 20.20	
 11.889	-24.555	 10.26016	  7.80611	  0.58133	  2.17221	  5.68891	 -0.26906	 10.96291	709.51001	 20.20	
 11.909	-32.701	 10.25945	  7.47983	  0.79989	  1.69846	  6.24448	 -0.29481	 10.96362	709.29999	 20.20	
 11.902	-40.852	 10.26263	  7.06772	  1.09952	  1.29067	  6.76004	 -0.31176	 10.96219	709.32001	 20.20	
 11.894	-49.133	 10.25625	  6.57329	  1.46645	  0.93627	  7.21560	 -0.32089	 10.96217	709.31000	 20.20	
 11.897	-57.268	 10.26761	  6.05026	  1.88628	  0.65550	  7.59904	 -0.32753	 10.96532	709.26001	 20.20	
 11.903	-65.403	 10.25690	  5.48392	  2.34256	  0.42667	  7.90271	 -0.32678	 10.96265	709.25000	 20.20	
 11.893	-73.654	 10.25590	  4.88525	  2.87152	  0.26733	  8.11967	 -0.33625	 10.96249	709.34003	 20.20	
 11.892	-81.845	 10.25374	  4.28142	  3.42455	  0.17436	  8.24269	 -0.33399	 10.96598	709.35999	 20.20	
 11.900	-90.000	 10.24817	  3.68769	  4.00379	  0.14657	  8.27011	 -0.33310	 10.96290	709.23999	 20.20	
 11.892	-98.155	 10.24967	  3.11446	  4.59652	  0.18293	  8.20287	 -0.32762	 10.96046	709.34998	 20.20	
 11.893	-106.346	 10.24500	  2.56279	  5.19811	  0.28495	  8.03651	 -0.33062	 10.96051	709.31000	 20.20	
 11.903	-114.597	 10.24665	  2.05221	  5.78699	  0.45372	  7.78248	 -0.33298	 10.96549	709.28003	 20.20	
 11.897	-122.732	 10.25305	  1.60150	  6.34058	  0.69004	  7.44766	 -0.33311	 10.96882	709.34003	 20.20	
 11.894	-130.867	 10.24450	  1.19059	  6.84769	  0.97923	  7.03459	 -0.33442	 10.96399	709.35999	 20.20	
 11.902	-139.148	 10.24218	  0.83874	  7.31081	  1.33951	  6.54940	 -0.33165	 10.96437	709.34003	 20.20	
 11.909	-147.299	 10.23835	  0.55166	  7.69692	  1.75623	  6.01733	 -0.33417	 10.96316	709.32001	 20.20	
 11.889	-155.445	 10.23639	  0.33823	  7.99860	  2.23489	  5.44264	 -0.33930	 10.96318	709.32001	 20.20	
 11.890	-163.610	 10.23021	  0.18498	  8.21867	  2.74624	  4.86082	 -0.34799	 10.96345	709.34998	 20.20	
 11.899	-171.783	 10.22643	  0.09506	  8.35659	  3.30879	  4.25378	 -0.34933	 10.97051	709.39001	 20.20	
 11.900	180.000	 10.21324	  0.07542	  8.39041	  3.89625	  3.64935	 -0.34172	 10.96692	709.33002	 20.20	
 13.600	180.000	  9.94555	 -0.56092	  8.81711	  3.68578	  3.41649	 -0.42677	 10.96146	709.46002	 20.20	
 13.608	-172.853	  9.95366	 -0.55206	  8.79217	  3.10379	  4.00575	 -0.43216	 10.96333	709.34003	 20.20	
 13.611	-165.583	  9.95959	 -0.48593	  8.67832	  2.52951	  4.62311	 -0.42786	 10.96316	709.45001	 20.20	
 13.601	-158.353	  9.97411	 -0.34980	  8.47927	  2.01425	  5.22014	 -0.41555	 10.96358	709.39001	 20.20	
 13.609	-151.210	  9.98045	 -0.16585	  8.20449	  1.52569	  5.80917	 -0.39925	 10.96305	709.40002	 20.30	
 13.611	-143.999	  9.98437	  0.07725	  7.85527	  1.08271	  6.37529	 -0.38857	 10.96548	709.39001	 20.20	
 13.601	-136.825	  9.98873	  0.38079	  7.43740	  0.70413	  6.88810	 -0.38216	 10.96657	709.33002	 20.30	
 13.596	-129.640	  9.99181	  0.72859	  6.96886	  0.37625	  7.35489	 -0.37697	 10.96341	709.32001	 20.30	
