FileType=PCF
NHL=14
Date=08/28/17	17:21:15
Facility=APL
Serial=16328-12
Customer=NASA
NP=6
Mach=0.150000
Calibration=1:1
CalPts=490
TstPts=95
PortNumbering=AP Standard
Units=Torr C m/s kg/m^3 deg mm 
Theta[deg]	Phi[deg]	P1[Torr]	P2[Torr]	P3[Torr]	P4[Torr]	P5[Torr]	P6[Torr]	Pt[Torr]	Ps[Abs,Torr]	Ts[C]	
  0.000	  0.000	 11.11763	  5.78017	  5.86619	  5.74683	  6.04306	  0.07474	 11.10348	707.37598	 24.00	
  1.691	128.401	 11.11292	  5.41933	  6.19713	  6.17026	  5.59857	  0.07356	 11.10308	707.38202	 24.00	
  1.692	 77.194	 11.11984	  5.89763	  5.72791	  6.28698	  5.49113	  0.07205	 11.10830	707.30603	 24.00	
  1.699	 26.182	 11.12095	  6.27986	  5.35812	  5.98899	  5.78113	  0.06976	 11.10756	707.45502	 24.00	
  1.699	-26.182	 11.13278	  6.28505	  5.36347	  5.50154	  6.27572	  0.06569	 11.12113	707.37402	 24.00	
  1.692	-77.194	 11.14751	  5.90559	  5.74470	  5.22187	  6.57839	  0.06260	 11.13772	707.32001	 24.00	
  1.691	-128.401	 11.11653	  5.42344	  6.19670	  5.30607	  6.45991	  0.06462	 11.10627	707.30603	 24.00	
  1.700	180.000	 11.12686	  5.21810	  6.41843	  5.73835	  6.03505	  0.06851	 11.11541	707.26501	 23.90	
  3.400	180.000	 11.10472	  4.64113	  6.94507	  5.68669	  5.98451	  0.04851	 11.11071	707.24103	 24.00	
  3.388	-152.325	 11.10770	  4.76753	  6.79777	  5.19105	  6.49380	  0.02880	 11.11809	707.36200	 23.90	
  3.397	-124.529	 11.09393	  5.08867	  6.43058	  4.80514	  6.88862	  0.02450	 11.10592	707.24402	 23.90	
  3.399	-96.763	 11.11431	  5.58360	  5.93857	  4.63421	  7.09748	  0.01629	 11.12459	707.35199	 24.00	
  3.394	-69.283	 11.09731	  6.09592	  5.41153	  4.68906	  7.01268	  0.01612	 11.11038	707.43298	 23.90	
  3.400	-41.398	 11.08588	  6.55538	  4.98073	  4.96919	  6.69213	  0.01929	 11.09561	707.30402	 23.90	
  3.401	-14.021	 11.09928	  6.83229	  4.76002	  5.42511	  6.23984	  0.03881	 11.10291	707.23901	 23.90	
  3.401	 14.021	 11.09016	  6.81217	  4.75953	  5.95886	  5.69675	  0.03328	 11.09355	707.35901	 23.90	
  3.400	 41.398	 11.10751	  6.56727	  5.00214	  6.43645	  5.26887	  0.04682	 11.10919	707.40399	 23.90	
  3.394	 69.283	 11.11171	  6.13592	  5.41731	  6.72592	  4.99535	  0.04539	 11.11155	707.36603	 23.90	
  3.399	 96.763	 11.10935	  5.58295	  5.95361	  6.80063	  4.92977	  0.04499	 11.10883	707.45300	 23.90	
  3.397	124.529	 11.10344	  5.10503	  6.44350	  6.61895	  5.10162	  0.05220	 11.10471	707.50000	 23.90	
  3.388	152.325	 11.10117	  4.76723	  6.80574	  6.21137	  5.48034	  0.04997	 11.10585	707.42499	 23.90	
  5.099	161.165	 11.05706	  4.11250	  7.37005	  6.15256	  5.37320	  0.00119	 11.11369	707.49799	 23.90	
  5.109	142.013	 11.05237	  4.35375	  7.08942	  6.65778	  4.90645	 -0.00162	 11.10470	707.48602	 23.90	
  5.095	123.033	 11.07635	  4.74809	  6.67795	  7.05323	  4.58151	 -0.00248	 11.12757	707.43298	 23.90	
  5.105	104.191	 11.06346	  5.23285	  6.13979	  7.29080	  4.36375	 -0.00283	 11.11359	707.25598	 23.90	
  5.093	 85.207	 11.05973	  5.77571	  5.59010	  7.32803	  4.32395	  0.00287	 11.10830	707.39697	 23.90	
  5.104	 66.290	 11.06235	  6.33543	  5.06074	  7.18406	  4.44131	  0.00571	 11.10866	707.37598	 23.90	
  5.094	 47.331	 11.04511	  6.80182	  4.61628	  6.85559	  4.70921	  0.00116	 11.09741	707.38800	 23.90	
  5.089	 28.397	 11.06469	  7.17954	  4.30816	  6.41545	  5.11761	 -0.00182	 11.12289	707.33698	 23.90	
  5.096	  9.576	 11.04688	  7.36548	  4.13033	  5.87882	  5.60424	 -0.01082	 11.10533	707.35901	 23.90	
  5.096	 -9.576	 11.05245	  7.36572	  4.13053	  5.31179	  6.17256	 -0.01718	 11.11129	707.28998	 23.90	
  5.089	-28.397	 11.04643	  7.16482	  4.29378	  4.81777	  6.69148	 -0.02328	 11.10948	707.35699	 23.80	
  5.094	-47.331	 11.01923	  6.78548	  4.59417	  4.39646	  7.13192	 -0.03393	 11.09047	707.41400	 23.80	
  5.104	-66.290	 11.00758	  6.29082	  5.02954	  4.10462	  7.45462	 -0.04060	 11.08206	707.44098	 23.80	
  5.093	-85.207	 11.03628	  5.75679	  5.56793	  3.99232	  7.61812	 -0.04195	 11.11281	707.45203	 23.80	
  5.105	-104.191	 11.02439	  5.19752	  6.12095	  4.02664	  7.56269	 -0.03394	 11.10116	707.40802	 23.80	
  5.095	-123.033	 11.06218	  4.72969	  6.66103	  4.24906	  7.35120	 -0.02587	 11.13437	707.43103	 23.80	
  5.109	-142.013	 11.03755	  4.33647	  7.07546	  4.58995	  6.94297	 -0.01813	 11.10743	707.41101	 23.80	
  5.099	-161.165	 11.04975	  4.10129	  7.36370	  5.06959	  6.44040	 -0.00912	 11.11754	707.36200	 23.80	
  5.100	180.000	 11.03555	  4.02211	  7.45417	  5.59636	  5.89046	  0.00430	 11.09559	707.42200	 23.80	
  6.800	180.000	 10.94752	  3.37386	  7.95741	  5.48324	  5.78717	 -0.07305	 11.10504	707.42798	 23.80	
  6.796	-166.229	 10.96661	  3.43263	  7.90308	  4.96574	  6.33225	 -0.07512	 11.12908	707.44702	 23.80	
  6.808	-152.311	 10.93769	  3.59081	  7.67955	  4.46191	  6.83879	 -0.07930	 11.10474	707.53400	 23.80	
  6.795	-138.383	 10.94658	  3.87389	  7.35296	  4.03743	  7.31622	 -0.09444	 11.11766	707.57001	 23.80	
  6.792	-124.591	 10.93741	  4.25028	  6.91498	  3.70034	  7.69261	 -0.09600	 11.10960	707.56201	 23.80	
  6.787	-110.754	 10.92932	  4.70661	  6.40808	  3.46972	  7.95722	 -0.10209	 11.10308	707.57397	 23.80	
  6.800	-96.985	 10.94105	  5.22610	  5.87780	  3.35571	  8.10548	 -0.12310	 11.11863	707.45502	 23.80	
  6.800	-83.015	 10.94030	  5.78225	  5.32306	  3.36002	  8.10151	 -0.12490	 11.11543	707.37598	 23.80	
  6.787	-69.246	 10.91496	  6.30919	  4.80039	  3.47074	  7.94398	 -0.12456	 11.09069	707.47601	 23.80	
  6.792	-55.409	 10.94017	  6.83193	  4.35099	  3.70290	  7.69667	 -0.12081	 11.11431	707.52301	 23.80	
  6.795	-41.617	 10.93432	  7.26302	  3.97030	  4.03415	  7.30763	 -0.11037	 11.10610	707.46198	 23.80	
  6.808	-27.689	 10.91852	  7.59816	  3.67646	  4.45247	  6.81949	 -0.09739	 11.08301	707.47803	 23.80	
  6.796	-13.771	 10.96701	  7.84037	  3.52359	  4.96035	  6.32695	 -0.08776	 11.12937	707.47601	 23.80	
  6.800	  0.000	 10.95030	  7.90080	  3.46170	  5.47977	  5.77909	 -0.08711	 11.10398	707.46899	 23.80	
  6.796	 13.771	 10.95649	  7.83514	  3.52466	  6.03026	  5.25180	 -0.07855	 11.11057	707.34497	 23.80	
  6.808	 27.689	 10.96308	  7.63124	  3.69629	  6.56105	  4.76420	 -0.07239	 11.11545	707.35101	 23.80	
  6.795	 41.617	 10.96644	  7.28998	  3.99030	  7.02551	  4.35691	 -0.06751	 11.10891	707.46399	 23.80	
  6.792	 55.409	 10.96447	  6.85133	  4.36817	  7.40803	  4.03030	 -0.06399	 11.10858	707.32800	 23.80	
  6.787	 69.246	 10.94671	  6.33897	  4.82142	  7.67017	  3.80406	 -0.05856	 11.08729	707.34497	 23.80	
  6.800	 83.015	 10.95895	  5.80645	  5.33486	  7.82778	  3.68849	 -0.06720	 11.10310	707.33099	 23.80	
  6.800	 96.985	 10.96322	  5.25141	  5.88817	  7.83905	  3.68951	 -0.06925	 11.10677	707.34497	 23.80	
  6.787	110.754	 10.96242	  4.73875	  6.42380	  7.68937	  3.80889	 -0.06943	 11.10228	707.38501	 23.80	
  6.792	124.591	 10.97932	  4.28869	  6.93456	  7.42934	  4.04117	 -0.06720	 11.11950	707.48297	 23.80	
  6.795	138.383	 10.98994	  3.91398	  7.37125	  7.05079	  4.37413	 -0.06628	 11.13529	707.44098	 23.80	
  6.808	152.311	 10.98216	  3.62027	  7.70535	  6.58036	  4.78266	 -0.05933	 11.13020	707.31500	 23.80	
  6.796	166.229	 10.94546	  3.43857	  7.88407	  6.03269	  5.25549	 -0.06364	 11.10134	707.35699	 23.80	
  8.491	168.704	 10.81679	  2.75998	  8.37456	  5.91489	  5.09951	 -0.14821	 11.10632	707.28699	 23.80	
  8.502	157.493	 10.83997	  2.90276	  8.22478	  6.47151	  4.60363	 -0.13589	 11.12614	707.34900	 23.80	
  8.494	146.194	 10.83290	  3.13890	  7.93255	  6.97818	  4.14659	 -0.14274	 11.11215	707.30701	 23.80	
  8.495	135.039	 10.83879	  3.45922	  7.56164	  7.43982	  3.75681	 -0.15137	 11.11411	707.34601	 23.80	
  8.487	123.723	 10.84561	  3.86576	  7.10328	  7.82784	  3.44212	 -0.15987	 11.12224	707.45300	 23.80	
  8.492	112.575	 10.83390	  4.32590	  6.58502	  8.09917	  3.21068	 -0.15776	 11.10838	707.43799	 23.80	
  8.510	101.220	 10.84256	  4.84847	  6.03964	  8.28506	  3.07039	 -0.16809	 11.12098	707.47998	 23.80	
  8.500	 90.000	 10.82391	  5.39186	  5.47110	  8.31965	  3.02470	 -0.16599	 11.09706	707.46899	 23.80	
  8.510	 78.780	 10.83555	  5.96096	  4.92697	  8.27258	  3.06476	 -0.15629	 11.11041	707.35199	 23.80	
  8.492	 67.425	 10.83766	  6.51854	  4.41064	  8.09089	  3.21263	 -0.13882	 11.11373	707.35999	 23.80	
  8.487	 56.277	 10.82491	  7.02090	  3.94618	  7.80191	  3.43020	 -0.14084	 11.10261	707.47601	 23.80	
  8.495	 44.961	 10.82476	  7.49109	  3.53870	  7.42104	  3.74391	 -0.14860	 11.10498	707.27899	 23.80	
  8.494	 33.806	 10.81672	  7.86344	  3.22155	  6.95616	  4.13576	 -0.14902	 11.10122	707.39697	 23.80	
  8.502	 22.507	 10.82210	  8.15968	  2.98316	  6.44911	  4.59286	 -0.15653	 11.11346	707.39001	 23.80	
  8.491	 11.296	 10.81456	  8.32640	  2.84530	  5.90451	  5.09225	 -0.16634	 11.10718	707.35199	 23.80	
  8.500	  0.000	 10.79501	  8.37182	  2.78950	  5.33007	  5.63331	 -0.17079	 11.09109	707.25800	 23.80	
  8.491	-11.296	 10.80384	  8.31515	  2.83780	  4.78916	  6.19286	 -0.16852	 11.10135	707.30603	 23.80	
  8.502	-22.507	 10.81410	  8.14828	  2.97581	  4.28284	  6.73862	 -0.17613	 11.11978	707.42798	 23.80	
  8.494	-33.806	 10.78934	  7.83841	  3.20698	  3.80689	  7.24233	 -0.19087	 11.10229	707.47998	 23.80	
  8.495	-44.961	 10.78314	  7.45119	  3.52137	  3.40983	  7.69232	 -0.20263	 11.10200	707.47998	 23.80	
  8.487	-56.277	 10.78209	  6.98240	  3.92567	  3.09901	  8.06478	 -0.21590	 11.09967	707.23602	 23.80	
  8.492	-67.425	 10.80376	  6.48228	  4.39257	  2.87331	  8.36103	 -0.22135	 11.13004	707.36902	 23.80	
  8.510	-78.780	 10.79117	  5.91439	  4.90563	  2.72136	  8.53190	 -0.22289	 11.11765	707.39301	 23.80	
  8.500	-90.000	 10.81367	  5.35714	  5.46649	  2.67803	  8.60308	 -0.22140	 11.13820	707.36499	 23.80	
  8.510	-101.220	 10.77387	  4.78799	  6.00206	  2.70756	  8.51800	 -0.20839	 11.09399	707.39697	 23.80	
  8.492	-112.575	 10.79066	  4.28056	  6.56600	  2.86655	  8.34791	 -0.18439	 11.11046	707.39600	 23.80	
  8.487	-123.723	 10.79453	  3.82509	  7.07767	  3.09924	  8.07161	 -0.17393	 11.11347	707.40802	 23.80	
  8.495	-135.039	 10.78329	  3.42175	  7.52853	  3.40597	  7.69650	 -0.17085	 11.10278	707.28998	 23.80	
  8.494	-146.194	 10.79204	  3.11470	  7.90662	  3.80988	  7.24830	 -0.16442	 11.10407	707.30701	 23.80	
  8.502	-157.493	 10.79367	  2.88153	  8.19133	  4.28169	  6.72965	 -0.15672	 11.09749	707.35999	 23.80	
  8.491	-168.704	 10.81587	  2.75390	  8.37474	  4.79952	  6.20277	 -0.15745	 11.11422	707.33698	 23.80	
  8.500	180.000	 10.81176	  2.70459	  8.43284	  5.34281	  5.64885	 -0.15322	 11.10158	707.46997	 23.80	
 10.200	180.000	 10.64678	  2.04062	  8.88636	  5.18456	  5.48707	 -0.25128	 11.11921	707.38501	 23.80	
 10.191	-170.497	 10.63048	  2.07329	  8.82507	  4.62633	  6.03603	 -0.25224	 11.10771	707.34900	 23.80	
 10.210	-161.034	 10.64304	  2.18692	  8.69169	  4.10600	  6.59809	 -0.24725	 11.12834	707.34497	 23.80	
 10.194	-151.526	 10.63407	  2.38437	  8.43477	  3.61060	  7.13667	 -0.25250	 11.12679	707.34100	 23.80	
 10.190	-142.105	 10.61213	  2.64350	  8.08836	  3.16767	  7.61638	 -0.25686	 11.10874	707.30603	 23.80	
 10.215	-132.646	 10.61060	  2.97449	  7.68619	  2.79526	  8.05036	 -0.25466	 11.11343	707.35199	 23.80	
 10.203	-123.092	 10.61657	  3.38231	  7.21312	  2.49209	  8.42521	 -0.26061	 11.12211	707.37598	 23.80	
 10.192	-113.678	 10.60160	  3.83720	  6.67919	  2.25571	  8.70251	 -0.27274	 11.10632	707.37299	 23.80	
 10.208	-104.249	 10.60528	  4.34115	  6.13423	  2.09155	  8.90806	 -0.29921	 11.11377	707.27197	 23.80	
 10.210	-94.801	 10.61212	  4.88760	  5.57216	  2.01348	  9.01725	 -0.31473	 11.12501	707.37598	 23.80	
 10.210	-85.199	 10.59159	  5.45479	  4.99141	  2.01236	  9.00177	 -0.33089	 11.10340	707.35101	 23.80	
 10.208	-75.751	 10.59461	  6.02810	  4.45327	  2.09187	  8.90794	 -0.33174	 11.10774	707.28302	 23.80	
 10.192	-66.322	 10.59588	  6.58300	  3.95328	  2.25861	  8.70336	 -0.32219	 11.10858	707.43597	 23.80	
 10.203	-56.908	 10.60839	  7.11980	  3.49515	  2.48992	  8.43039	 -0.31643	 11.11970	707.35901	 23.80	
 10.215	-47.354	 10.59931	  7.60027	  3.07978	  2.79060	  8.05137	 -0.30248	 11.10763	707.46399	 23.80	
 10.190	-37.895	 10.60778	  8.01350	  2.74632	  3.16450	  7.61607	 -0.28434	 11.11128	707.42499	 23.80	
 10.194	-28.474	 10.61437	  8.35694	  2.47815	  3.59430	  7.12603	 -0.27138	 11.10642	707.32599	 23.80	
 10.210	-18.966	 10.63904	  8.63313	  2.28106	  4.09327	  6.59695	 -0.26537	 11.13220	707.44501	 23.80	
 10.191	 -9.503	 10.62083	  8.76712	  2.16332	  4.60982	  6.03189	 -0.26025	 11.10349	707.36499	 23.80	
 10.200	  0.000	 10.64675	  8.84282	  2.12931	  5.17195	  5.48371	 -0.26428	 11.12772	707.38300	 23.80	
 10.191	  9.503	 10.63886	  8.79177	  2.16337	  5.73846	  4.92011	 -0.27097	 11.11245	707.41302	 23.80	
 10.210	 18.966	 10.63607	  8.64354	  2.27435	  6.29432	  4.39846	 -0.25688	 11.10951	707.32800	 23.80	
 10.194	 28.474	 10.66860	  8.41027	  2.48811	  6.85226	  3.93092	 -0.24536	 11.13722	707.34100	 23.80	
 10.190	 37.895	 10.64923	  8.06017	  2.75378	  7.34143	  3.49299	 -0.23929	 11.10952	707.30402	 23.80	
 10.215	 47.354	 10.63946	  7.64769	  3.08413	  7.78819	  3.10998	 -0.23093	 11.10245	707.25000	 23.80	
 10.203	 56.908	 10.63055	  7.16139	  3.49546	  8.14730	  2.81602	 -0.22094	 11.08307	707.29999	 23.80	
 10.192	 66.322	 10.65085	  6.64793	  3.96822	  8.44798	  2.59964	 -0.21540	 11.09970	707.25500	 23.80	
 10.208	 75.751	 10.67399	  6.11035	  4.47988	  8.67300	  2.44506	 -0.23622	 11.12834	707.35199	 23.80	
 10.210	 85.199	 10.65184	  5.52880	  5.01276	  8.76211	  2.36147	 -0.25601	 11.10462	707.38000	 23.80	
 10.210	 94.801	 10.66564	  4.95578	  5.59618	  8.77545	  2.36414	 -0.27062	 11.11965	707.31000	 23.80	
 10.208	104.249	 10.66541	  4.40752	  6.16130	  8.67344	  2.44802	 -0.26711	 11.11429	707.32098	 23.80	
 10.192	113.678	 10.66533	  3.89487	  6.71326	  8.47219	  2.60576	 -0.25845	 11.11518	707.43799	 23.80	
 10.203	123.092	 10.66382	  3.42118	  7.23452	  8.18614	  2.82740	 -0.25288	 11.11495	707.37598	 23.80	
 10.215	132.646	 10.65673	  3.00404	  7.70996	  7.81022	  3.12539	 -0.24693	 11.11095	707.43298	 23.80	
 10.190	142.105	 10.65553	  2.67001	  8.11191	  7.36204	  3.49927	 -0.23747	 11.10616	707.47498	 23.80	
 10.194	151.526	 10.65322	  2.39636	  8.44464	  6.85869	  3.93105	 -0.22486	 11.10991	707.41901	 23.80	
 10.210	161.034	 10.65201	  2.19556	  8.69403	  6.31934	  4.41281	 -0.22672	 11.11340	707.45898	 23.80	
 10.191	170.497	 10.65547	  2.08531	  8.84101	  5.76468	  4.93399	 -0.24129	 11.12264	707.40698	 23.80	
 11.899	171.783	 10.42506	  1.41146	  9.24484	  5.56723	  4.72845	 -0.33200	 11.11171	707.48602	 23.80	
 11.890	163.610	 10.44742	  1.51481	  9.13278	  6.14095	  4.21430	 -0.31770	 11.12677	707.52600	 23.80	
 11.889	155.445	 10.44436	  1.68022	  8.91590	  6.69081	  3.72069	 -0.31108	 11.11899	707.52301	 23.80	
 11.909	147.299	 10.44417	  1.90065	  8.62853	  7.22277	  3.25828	 -0.31929	 11.12135	707.48401	 23.80	
 11.902	139.148	 10.44971	  2.19677	  8.26231	  7.71324	  2.85826	 -0.32842	 11.12046	707.53802	 23.80	
 11.894	130.867	 10.45290	  2.56396	  7.82131	  8.14187	  2.51741	 -0.33583	 11.11861	707.53101	 23.80	
 11.897	122.732	 10.45937	  2.97875	  7.34273	  8.51639	  2.22803	 -0.35057	 11.12366	707.46997	 23.80	
 11.903	114.597	 10.44506	  3.43050	  6.81305	  8.80800	  1.99260	 -0.36369	 11.11336	707.48401	 23.80	
 11.893	106.346	 10.44898	  3.95411	  6.25214	  9.02932	  1.82783	 -0.37560	 11.11919	707.45300	 23.80	
 11.892	 98.155	 10.43135	  4.49123	  5.67231	  9.14248	  1.73052	 -0.37641	 11.09896	707.25000	 23.80	
 11.900	 90.000	 10.42807	  5.05189	  5.10263	  9.18565	  1.69018	 -0.36651	 11.10061	707.41901	 23.80	
 11.892	 81.845	 10.42278	  5.62225	  4.54210	  9.13108	  1.72524	 -0.34439	 11.09289	707.46100	 23.80	
 11.893	 73.654	 10.43121	  6.19489	  4.01096	  9.00603	  1.82029	 -0.31922	 11.10241	707.50098	 23.80	
 11.903	 65.403	 10.45316	  6.77334	  3.51044	  8.80474	  1.98646	 -0.29969	 11.12891	707.55701	 23.80	
 11.897	 57.268	 10.44403	  7.29839	  3.04730	  8.49373	  2.21573	 -0.30018	 11.11985	707.47498	 23.80	
 11.894	 49.133	 10.43411	  7.77279	  2.64476	  8.11351	  2.50704	 -0.30773	 11.10925	707.25598	 23.80	
 11.902	 40.852	 10.43947	  8.21516	  2.28626	  7.68754	  2.85390	 -0.32294	 11.12238	707.35400	 23.80	
 11.909	 32.701	 10.42043	  8.56940	  1.98974	  7.18992	  3.24864	 -0.33540	 11.10442	707.24200	 23.80	
 11.889	 24.555	 10.42528	  8.86365	  1.76532	  6.66211	  3.70864	 -0.34648	 11.11676	707.42102	 23.80	
 11.890	 16.390	 10.42679	  9.08278	  1.60249	  6.11123	  4.20419	 -0.35488	 11.12107	707.42999	 23.80	
 11.899	  8.217	 10.42814	  9.21673	  1.50217	  5.54936	  4.72833	 -0.35486	 11.12641	707.44098	 23.80	
 11.900	  0.000	 10.42262	  9.25375	  1.46936	  4.96926	  5.28854	 -0.35579	 11.12395	707.36603	 23.80	
 11.899	 -8.217	 10.41952	  9.20522	  1.49872	  4.41393	  5.84968	 -0.34896	 11.12844	707.39899	 23.80	
 11.890	-16.390	 10.40311	  9.05471	  1.60034	  3.88368	  6.40047	 -0.34831	 11.10956	707.53101	 23.80	
 11.889	-24.555	 10.39607	  8.82800	  1.76377	  3.38121	  6.95187	 -0.35087	 11.11142	707.42499	 23.80	
 11.909	-32.701	 10.38594	  8.52496	  1.98552	  2.92483	  7.46937	 -0.36531	 11.11263	707.42200	 23.80	
 11.902	-40.852	 10.39149	  8.15718	  2.28065	  2.52903	  7.94838	 -0.36954	 11.12299	707.53101	 23.80	
 11.894	-49.133	 10.38193	  7.70562	  2.63443	  2.17305	  8.37650	 -0.38739	 11.11887	707.62500	 23.80	
 11.897	-57.268	 10.37774	  7.21500	  3.03647	  1.87847	  8.73921	 -0.40608	 11.11583	707.54797	 23.80	
 11.903	-65.403	 10.36646	  6.67419	  3.48879	  1.65010	  9.02323	 -0.41121	 11.10650	707.45898	 23.80	
 11.893	-73.654	 10.37773	  6.11539	  3.99456	  1.49061	  9.24181	 -0.41487	 11.11491	707.56299	 23.80	
 11.892	-81.845	 10.38040	  5.54270	  4.52751	  1.39476	  9.36823	 -0.41882	 11.11549	707.51703	 23.80	
 11.900	-90.000	 10.37555	  4.96719	  5.07779	  1.35736	  9.40785	 -0.41565	 11.11137	707.51398	 23.80	
 11.892	-98.155	 10.38411	  4.41117	  5.64735	  1.39464	  9.36634	 -0.40598	 11.11322	707.50702	 23.80	
 11.893	-106.346	 10.37389	  3.87128	  6.21039	  1.48613	  9.22964	 -0.38770	 11.10443	707.39001	 23.80	
 11.903	-114.597	 10.38076	  3.36779	  6.77215	  1.64575	  9.02701	 -0.36018	 11.11522	707.53699	 23.80	
 11.897	-122.732	 10.37541	  2.91697	  7.29152	  1.87780	  8.72697	 -0.34615	 11.10283	707.45300	 23.80	
 11.894	-130.867	 10.37859	  2.52240	  7.77294	  2.17216	  8.36164	 -0.33271	 11.10365	707.39301	 23.80	
 11.902	-139.148	 10.37506	  2.16889	  8.20934	  2.52823	  7.92459	 -0.33514	 11.09305	707.41101	 23.80	
 11.909	-147.299	 10.41803	  1.88898	  8.61106	  2.93932	  7.48490	 -0.34446	 11.13840	707.24200	 23.80	
 11.889	-155.445	 10.41708	  1.67259	  8.89297	  3.39795	  6.95966	 -0.35064	 11.12539	707.36798	 23.80	
 11.890	-163.610	 10.38019	  1.50596	  9.07574	  3.88958	  6.38405	 -0.34864	 11.08019	707.37402	 23.80	
 11.899	-171.783	 10.42393	  1.41337	  9.24471	  4.43325	  5.85220	 -0.35127	 11.12237	707.36200	 23.80	
 11.900	180.000	 10.42446	  1.37811	  9.28907	  4.98985	  5.28730	 -0.34687	 11.11143	707.41302	 23.80	
 13.600	180.000	 10.16637	  0.71761	  9.66007	  4.76677	  5.05801	 -0.44322	 11.11495	707.24200	 23.80	
 13.608	-172.853	 10.15611	  0.74063	  9.61665	  4.21063	  5.61225	 -0.44709	 11.11660	707.28601	 23.80	
 13.611	-165.583	 10.12889	  0.81957	  9.47690	  3.66321	  6.16161	 -0.44816	 11.08810	707.46198	 23.80	
 13.601	-158.353	 10.16033	  0.96378	  9.31237	  3.15842	  6.75004	 -0.44504	 11.13148	707.33698	 23.80	
 13.609	-151.210	 10.12699	  1.14607	  9.02787	  2.68412	  7.26075	 -0.44366	 11.10398	707.39099	 23.80	
 13.611	-143.999	 10.15897	  1.39150	  8.72582	  2.26532	  7.78922	 -0.43223	 11.14763	707.42999	 23.80	
 13.601	-136.825	 10.12362	  1.68989	  8.30059	  1.87702	  8.23003	 -0.41790	 11.11126	707.49402	 23.80	
 13.596	-129.640	 10.12977	  2.04080	  7.85382	  1.54598	  8.65454	 -0.41289	 11.12394	707.49500	 23.80	
