FileType=PCF
NHL=14
Date=08/28/17	17:56:50
Facility=APL
Serial=16328-12
Customer=NASA
NP=6
Mach=0.200000
Calibration=1:1
CalPts=490
TstPts=95
PortNumbering=AP Standard
Units=Torr C m/s kg/m^3 deg mm 
Theta[deg]	Phi[deg]	P1[Torr]	P2[Torr]	P3[Torr]	P4[Torr]	P5[Torr]	P6[Torr]	Pt[Torr]	Ps[Abs,Torr]	Ts[C]	
  0.000	  0.000	 19.57536	 10.16412	 10.26463	 10.09320	 10.54961	  0.14984	 19.54806	707.61603	 24.50	
  1.691	128.401	 19.54669	  9.52002	 10.85518	 10.84610	  9.77390	  0.14565	 19.52468	707.64203	 24.50	
  1.692	 77.194	 19.53751	 10.34333	 10.00976	 11.03897	  9.58121	  0.14164	 19.51503	707.62799	 24.50	
  1.699	 26.182	 19.56371	 11.03856	  9.36038	 10.51270	 10.09281	  0.13592	 19.54077	707.67297	 24.50	
  1.699	-26.182	 19.54691	 11.02489	  9.35020	  9.61147	 10.95539	  0.12790	 19.51928	707.68903	 24.50	
  1.692	-77.194	 19.56953	 10.34257	 10.02138	  9.10415	 11.50502	  0.12616	 19.55040	707.68402	 24.50	
  1.691	-128.401	 19.55340	  9.51008	 10.84835	  9.27858	 11.31588	  0.12846	 19.53587	707.61603	 24.50	
  1.700	180.000	 19.54735	  9.14337	 11.24067	 10.04227	 10.53851	  0.13584	 19.52309	707.67200	 24.50	
  3.400	180.000	 19.53401	  8.12892	 12.20175	  9.97433	 10.46646	  0.09321	 19.54788	707.61798	 24.50	
  3.388	-152.325	 19.51386	  8.33895	 11.94205	  9.05545	 11.37471	  0.09249	 19.53211	707.51501	 24.50	
  3.397	-124.529	 19.50339	  8.93290	 11.28074	  8.38095	 12.08894	  0.07487	 19.52543	707.55701	 24.50	
  3.399	-96.763	 19.50701	  9.77676	 10.37089	  8.05805	 12.44555	  0.06987	 19.53366	707.58197	 24.50	
  3.394	-69.283	 19.52378	 10.73104	  9.46543	  8.17681	 12.30968	  0.04086	 19.54018	707.67700	 24.50	
  3.400	-41.398	 19.53374	 11.57107	  8.69258	  8.70236	 11.77153	  0.07224	 19.55375	707.71503	 24.50	
  3.401	-14.021	 19.52810	 12.02968	  8.26205	  9.49675	 10.92929	  0.08382	 19.53947	707.75403	 24.50	
  3.401	 14.021	 19.53616	 12.04009	  8.26923	 10.48112	  9.97895	  0.09008	 19.54155	707.64099	 24.50	
  3.400	 41.398	 19.53479	 11.58633	  8.69321	 11.33448	  9.18405	  0.08731	 19.55165	707.56500	 24.50	
  3.394	 69.283	 19.53357	 10.77211	  9.46583	 11.88334	  8.66740	  0.09510	 19.53895	707.58197	 24.50	
  3.399	 96.763	 19.53731	  9.84197	 10.39349	 12.01357	  8.56367	  0.10163	 19.54713	707.65802	 24.50	
  3.397	124.529	 19.51776	  8.95644	 11.29571	 11.65496	  8.88520	  0.09701	 19.52777	707.67700	 24.50	
  3.388	152.325	 19.50493	  8.33723	 11.94373	 10.90948	  9.57103	  0.09312	 19.51276	707.68903	 24.50	
  5.099	161.165	 19.43176	  7.20471	 12.93644	 10.81284	  9.41659	  0.01749	 19.54270	707.61798	 24.50	
  5.109	142.013	 19.42169	  7.64635	 12.44288	 11.72038	  8.56001	  0.02848	 19.52114	707.68103	 24.50	
  5.095	123.033	 19.42955	  8.35289	 11.67962	 12.41067	  7.93603	  0.02730	 19.52628	707.70599	 24.50	
  5.105	104.191	 19.48733	  9.25748	 10.77594	 12.86749	  7.57077	  0.00100	 19.58496	707.72900	 24.50	
  5.093	 85.207	 19.43828	 10.17458	  9.77596	 12.90139	  7.48014	 -0.00576	 19.53327	707.63599	 24.50	
  5.104	 66.290	 19.45715	 11.15114	  8.83420	 12.65938	  7.70332	  0.00254	 19.55052	707.76001	 24.50	
  5.094	 47.331	 19.47039	 11.99827	  8.04777	 12.10670	  8.21768	 -0.00319	 19.56242	707.83197	 24.50	
  5.089	 28.397	 19.42566	 12.61358	  7.46031	 11.27869	  8.94728	 -0.01631	 19.52753	707.67999	 24.50	
  5.096	  9.576	 19.43722	 12.96733	  7.15265	 10.34430	  9.82709	 -0.01802	 19.54132	707.69501	 24.50	
  5.096	 -9.576	 19.41887	 12.95929	  7.15681	  9.32584	 10.81108	 -0.02242	 19.53730	707.70801	 24.50	
  5.089	-28.397	 19.41949	 12.61713	  7.43677	  8.43872	 11.72861	 -0.04456	 19.54076	707.70801	 24.50	
  5.094	-47.331	 19.40944	 11.96134	  8.00865	  7.69249	 12.53275	 -0.06191	 19.53793	707.73700	 24.50	
  5.104	-66.290	 19.39236	 11.08137	  8.79973	  7.16161	 13.10800	 -0.07501	 19.52921	707.68903	 24.40	
  5.093	-85.207	 19.39879	 10.09295	  9.75607	  6.94673	 13.37689	 -0.06689	 19.53855	707.70398	 24.50	
  5.105	-104.191	 19.39889	  9.13517	 10.73025	  7.01156	 13.29661	 -0.07146	 19.54182	707.55402	 24.40	
  5.095	-123.033	 19.41115	  8.29198	 11.66543	  7.39698	 12.88077	 -0.05497	 19.55360	707.70398	 24.50	
  5.109	-142.013	 19.41530	  7.61814	 12.41928	  8.02611	 12.19885	 -0.04282	 19.54642	707.71802	 24.50	
  5.099	-161.165	 19.41016	  7.17897	 12.91151	  8.87541	 11.28352	 -0.03870	 19.52713	707.60400	 24.50	
  5.100	180.000	 19.41924	  7.03599	 13.10273	  9.81823	 10.34585	  0.00703	 19.53301	707.76202	 24.50	
  6.800	180.000	 19.26991	  5.88757	 13.99563	  9.61495	 10.15950	 -0.13568	 19.55842	707.65002	 24.50	
  6.796	-166.229	 19.24498	  5.96857	 13.86189	  8.66997	 11.07410	 -0.14538	 19.54180	707.60797	 24.50	
  6.808	-152.311	 19.18241	  6.24190	 13.45845	  7.77664	 11.96744	 -0.15114	 19.49122	707.59601	 24.50	
  6.795	-138.383	 19.22328	  6.74924	 12.89489	  7.03373	 12.84137	 -0.16204	 19.53881	707.62097	 24.50	
  6.792	-124.591	 19.26623	  7.45967	 12.15257	  6.44948	 13.54757	 -0.17560	 19.58096	707.66400	 24.50	
  6.787	-110.754	 19.20410	  8.26293	 11.22537	  6.02955	 13.97202	 -0.19465	 19.52509	707.66602	 24.50	
  6.800	-96.985	 19.21312	  9.15961	 10.27690	  5.82725	 14.21688	 -0.22320	 19.53366	707.75299	 24.50	
  6.800	-83.015	 19.21324	 10.14282	  9.29571	  5.83480	 14.21696	 -0.22918	 19.53890	707.70599	 24.50	
  6.787	-69.246	 19.23272	 11.10911	  8.39120	  6.04834	 13.98518	 -0.23502	 19.54942	707.78003	 24.50	
  6.792	-55.409	 19.21315	 11.99808	  7.56289	  6.44488	 13.49850	 -0.22010	 19.53081	707.59302	 24.50	
  6.795	-41.617	 19.22533	 12.78043	  6.89334	  7.03850	 12.83313	 -0.20007	 19.53944	707.80103	 24.50	
  6.808	-27.689	 19.25782	 13.41181	  6.38840	  7.80686	 12.00548	 -0.17852	 19.56212	707.75098	 24.50	
  6.796	-13.771	 19.23606	 13.75742	  6.07990	  8.67359	 11.06827	 -0.16655	 19.53476	707.64203	 24.50	
  6.800	  0.000	 19.23588	 13.88596	  5.96490	  9.60525	 10.11445	 -0.16472	 19.52324	707.75702	 24.50	
  6.796	 13.771	 19.25290	 13.78430	  6.07416	 10.58843	  9.19320	 -0.15287	 19.53470	707.74902	 24.50	
  6.808	 27.689	 19.23187	 13.40007	  6.37342	 11.51102	  8.29298	 -0.14462	 19.50989	707.72302	 24.40	
  6.795	 41.617	 19.26363	 12.81335	  6.90436	 12.35837	  7.56986	 -0.13758	 19.54383	707.75403	 24.50	
  6.792	 55.409	 19.26289	 12.04038	  7.58086	 13.04870	  6.98196	 -0.11215	 19.53048	707.77698	 24.40	
  6.787	 69.246	 19.29433	 11.15875	  8.41660	 13.54101	  6.60241	 -0.12983	 19.55473	707.71399	 24.50	
  6.800	 83.015	 19.28502	 10.21942	  9.34149	 13.79764	  6.37695	 -0.13899	 19.55216	707.62799	 24.40	
  6.800	 96.985	 19.26363	  9.26403	 10.28439	 13.79187	  6.37319	 -0.12608	 19.52631	707.71399	 24.40	
  6.787	110.754	 19.25851	  8.36383	 11.24765	 13.51877	  6.60113	 -0.14716	 19.52171	707.72601	 24.40	
  6.792	124.591	 19.25353	  7.53075	 12.14528	 13.03626	  7.01552	 -0.13373	 19.51880	707.81299	 24.40	
  6.795	138.383	 19.26514	  6.83716	 12.90176	 12.35937	  7.60893	 -0.14055	 19.52927	707.80200	 24.40	
  6.808	152.311	 19.25901	  6.32223	 13.49687	 11.53227	  8.35102	 -0.13127	 19.54124	707.83600	 24.40	
  6.796	166.229	 19.24151	  5.98855	 13.85254	 10.57494	  9.22936	 -0.12875	 19.52527	707.79102	 24.40	
  8.491	168.704	 19.00766	  4.81733	 14.70362	 10.35705	  8.94906	 -0.27889	 19.53481	707.73499	 24.40	
  8.502	157.493	 19.02888	  5.07033	 14.42301	 11.33258	  8.02919	 -0.27323	 19.55212	707.82202	 24.40	
  8.494	146.194	 19.03234	  5.48726	 13.92303	 12.24812	  7.21549	 -0.27896	 19.53391	707.75098	 24.40	
  8.495	135.039	 19.02545	  6.02730	 13.25815	 13.06068	  6.51210	 -0.29375	 19.53226	707.87500	 24.40	
  8.487	123.723	 19.02934	  6.74245	 12.43444	 13.74502	  5.96796	 -0.30278	 19.53291	707.79102	 24.40	
  8.492	112.575	 19.03471	  7.58935	 11.52479	 14.24582	  5.57861	 -0.31121	 19.53790	707.74500	 24.40	
  8.510	101.220	 19.04049	  8.52592	 10.54399	 14.57142	  5.31899	 -0.32298	 19.54414	707.86902	 24.40	
  8.500	 90.000	 19.02309	  9.48470	  9.55229	 14.64517	  5.21581	 -0.31979	 19.52014	707.93201	 24.40	
  8.510	 78.780	 19.02504	 10.46573	  8.58424	 14.54217	  5.30316	 -0.29054	 19.52986	707.88599	 24.40	
  8.492	 67.425	 19.03649	 11.43405	  7.67164	 14.22763	  5.55677	 -0.27314	 19.53951	707.76001	 24.40	
  8.487	 56.277	 19.02154	 12.32896	  6.85757	 13.72212	  5.95252	 -0.27368	 19.52478	707.87799	 24.40	
  8.495	 44.961	 19.03249	 13.16033	  6.13589	 13.06035	  6.51159	 -0.28797	 19.54815	707.81799	 24.40	
  8.494	 33.806	 19.00568	 13.81337	  5.57139	 12.24014	  7.20036	 -0.30230	 19.51982	707.70001	 24.40	
  8.502	 22.507	 18.99656	 14.32148	  5.14295	 11.32648	  8.00439	 -0.30657	 19.52377	707.68402	 24.40	
  8.491	 11.296	 19.00050	 14.63639	  4.89073	 10.37321	  8.92484	 -0.31945	 19.53899	707.79102	 24.40	
  8.500	  0.000	 18.95382	 14.70248	  4.79233	  9.34262	  9.86667	 -0.33435	 19.49346	707.87000	 24.40	
  8.491	-11.296	 18.98357	 14.61481	  4.89313	  8.39430	 10.85045	 -0.33198	 19.52221	707.86298	 24.40	
  8.502	-22.507	 18.97580	 14.30499	  5.13590	  7.48706	 11.80503	 -0.33220	 19.53453	707.94800	 24.40	
  8.494	-33.806	 18.96141	 13.77731	  5.54412	  6.64410	 12.71803	 -0.35559	 19.52427	707.86102	 24.40	
  8.495	-44.961	 18.96125	 13.10607	  6.11130	  5.94918	 13.52122	 -0.38612	 19.53654	707.66400	 24.40	
  8.487	-56.277	 18.93403	 12.26336	  6.81915	  5.39739	 14.14800	 -0.40848	 19.51268	707.74597	 24.40	
  8.492	-67.425	 18.95815	 11.37671	  7.63331	  4.99227	 14.65227	 -0.42358	 19.54126	707.76001	 24.40	
  8.510	-78.780	 18.95081	 10.38453	  8.55153	  4.72916	 14.96891	 -0.43614	 19.53011	707.73499	 24.40	
  8.500	-90.000	 18.96586	  9.39173	  9.52692	  4.64192	 15.07944	 -0.42810	 19.54619	707.85602	 24.40	
  8.510	-101.220	 18.94481	  8.41622	 10.51411	  4.69868	 14.97390	 -0.41223	 19.53042	707.67499	 24.40	
  8.492	-112.575	 18.93265	  7.48318	 11.49004	  4.96195	 14.64978	 -0.36869	 19.52084	707.79797	 24.40	
  8.487	-123.723	 18.94438	  6.65941	 12.39114	  5.37271	 14.16605	 -0.34994	 19.52348	707.77698	 24.40	
  8.495	-135.039	 18.94150	  5.94749	 13.20009	  5.91983	 13.51326	 -0.33601	 19.52348	707.83899	 24.40	
  8.494	-146.194	 18.94773	  5.40228	 13.86161	  6.63159	 12.71892	 -0.32756	 19.51474	707.82098	 24.40	
  8.502	-157.493	 18.96307	  5.01064	 14.37839	  7.47041	 11.80845	 -0.31634	 19.52240	707.95099	 24.40	
  8.491	-168.704	 18.96145	  4.78652	 14.67255	  8.36982	 10.85564	 -0.30971	 19.50431	707.83002	 24.40	
  8.500	180.000	 19.00581	  4.73127	 14.81516	  9.35283	  9.91226	 -0.31721	 19.54734	707.73901	 24.40	
 10.200	180.000	 18.69229	  3.59801	 15.57851	  9.05836	  9.61852	 -0.47641	 19.54420	707.74597	 24.40	
 10.191	-170.497	 18.66269	  3.60531	 15.48558	  8.07322	 10.57543	 -0.48451	 19.54134	707.82202	 24.40	
 10.210	-161.034	 18.64030	  3.75311	 15.21362	  7.13562	 11.53508	 -0.48093	 19.52650	707.76501	 24.40	
 10.194	-151.526	 18.63793	  4.09711	 14.77556	  6.26707	 12.49506	 -0.48393	 19.52947	707.82501	 24.40	
 10.190	-142.105	 18.64310	  4.55551	 14.20052	  5.48995	 13.37286	 -0.48149	 19.54522	707.77002	 24.40	
 10.215	-132.646	 18.62179	  5.13885	 13.47307	  4.82008	 14.13212	 -0.48032	 19.52419	707.86700	 24.40	
 10.203	-123.092	 18.61968	  5.86801	 12.62294	  4.29058	 14.78960	 -0.49522	 19.52914	707.79303	 24.40	
 10.192	-113.678	 18.63459	  6.70539	 11.70643	  3.89641	 15.30371	 -0.52330	 19.54723	707.72601	 24.40	
 10.208	-104.249	 18.61638	  7.59254	 10.72707	  3.60262	 15.64370	 -0.56803	 19.53413	707.88397	 24.50	
 10.210	-94.801	 18.62008	  8.55912	  9.72787	  3.45912	 15.82862	 -0.60157	 19.53389	707.79901	 24.40	
 10.210	-85.199	 18.60251	  9.56680	  8.71002	  3.47317	 15.81503	 -0.62022	 19.52468	707.83002	 24.40	
 10.208	-75.751	 18.60183	 10.56938	  7.75614	  3.61194	 15.63928	 -0.62633	 19.52575	707.76703	 24.40	
 10.192	-66.322	 18.59014	 11.54966	  6.86308	  3.89691	 15.27749	 -0.61394	 19.50908	707.73700	 24.40	
 10.203	-56.908	 18.60858	 12.48979	  6.04868	  4.30335	 14.78619	 -0.60120	 19.52843	707.74500	 24.40	
 10.215	-47.354	 18.62336	 13.35819	  5.31446	  4.84254	 14.14700	 -0.57350	 19.53977	707.84100	 24.40	
 10.190	-37.895	 18.63241	 14.08297	  4.72934	  5.50070	 13.37944	 -0.54036	 19.53224	707.63599	 24.40	
 10.194	-28.474	 18.62974	 14.67436	  4.25933	  6.26555	 12.49865	 -0.51836	 19.51358	707.68298	 24.40	
 10.210	-18.966	 18.65871	 15.15028	  3.92875	  7.14732	 11.56292	 -0.50522	 19.54786	707.73499	 24.40	
 10.191	 -9.503	 18.65560	 15.40752	  3.74130	  8.07109	 10.57048	 -0.50400	 19.52601	707.65900	 24.40	
 10.200	  0.000	 18.69682	 15.54828	  3.68071	  9.06295	  9.60708	 -0.50695	 19.56740	707.60498	 24.40	
 10.191	  9.503	 18.65775	 15.43651	  3.74161	 10.05539	  8.60483	 -0.51251	 19.51733	707.68298	 24.40	
 10.210	 18.966	 18.67203	 15.19505	  3.92280	 11.04953	  7.68551	 -0.50806	 19.52884	707.62701	 24.40	
 10.194	 28.474	 18.69375	 14.74540	  4.26587	 12.01416	  6.84452	 -0.49340	 19.54036	707.60999	 24.40	
 10.190	 37.895	 18.73423	 14.17534	  4.74689	 12.92534	  6.09400	 -0.47582	 19.57845	707.73901	 24.40	
 10.215	 47.354	 18.69474	 13.43216	  5.31735	 13.69448	  5.40853	 -0.45801	 19.53020	707.71100	 24.50	
 10.203	 56.908	 18.70995	 12.59065	  6.05603	 14.36215	  4.88150	 -0.43939	 19.54505	707.64398	 24.40	
 10.192	 66.322	 18.70747	 11.66545	  6.88043	 14.86543	  4.49860	 -0.44212	 19.52908	707.73102	 24.40	
 10.208	 75.751	 18.71789	 10.69462	  7.77307	 15.23942	  4.22635	 -0.47381	 19.54445	707.75702	 24.40	
 10.210	 85.199	 18.72771	  9.71562	  8.73716	 15.43012	  4.08171	 -0.51231	 19.55816	707.69098	 24.50	
 10.210	 94.801	 18.70641	  8.68925	  9.75357	 15.41526	  4.08655	 -0.53471	 19.53840	707.58801	 24.40	
 10.208	104.249	 18.69166	  7.69982	 10.74600	 15.22131	  4.22877	 -0.53474	 19.51661	707.74200	 24.40	
 10.192	113.678	 18.70409	  6.77439	 11.72145	 14.87027	  4.49845	 -0.51594	 19.52520	707.61603	 24.40	
 10.203	123.092	 18.71130	  5.95309	 12.65286	 14.38125	  4.87877	 -0.49733	 19.54023	707.61902	 24.40	
 10.215	132.646	 18.71607	  5.21191	 13.51742	 13.73068	  5.40706	 -0.48801	 19.55560	707.60199	 24.40	
 10.190	142.105	 18.70704	  4.66610	 14.22711	 12.91813	  6.08331	 -0.46871	 19.54365	707.63898	 24.40	
 10.194	151.526	 18.69843	  4.22711	 14.80360	 12.02068	  6.85354	 -0.45572	 19.52791	707.66901	 24.40	
 10.210	161.034	 18.69153	  3.88815	 15.24206	 11.06507	  7.70304	 -0.45467	 19.53609	707.68903	 24.40	
 10.191	170.497	 18.69011	  3.68335	 15.48306	 10.07747	  8.63666	 -0.48148	 19.53789	707.67700	 24.40	
 11.899	171.783	 18.29516	  2.55459	 16.21247	  9.73308	  8.26557	 -0.64763	 19.53020	707.57397	 24.50	
 11.890	163.610	 18.30194	  2.71753	 15.99055	 10.72733	  7.33991	 -0.62808	 19.52853	707.61902	 24.50	
 11.889	155.445	 18.31536	  2.99179	 15.63313	 11.71514	  6.47002	 -0.61388	 19.54300	707.77002	 24.40	
 11.909	147.299	 18.30577	  3.35657	 15.11572	 12.65262	  5.63866	 -0.62186	 19.52269	707.78699	 24.50	
 11.902	139.148	 18.31097	  3.87875	 14.46181	 13.52047	  4.92601	 -0.63707	 19.52960	707.82202	 24.40	
 11.894	130.867	 18.34682	  4.49589	 13.70763	 14.30280	  4.34820	 -0.65202	 19.54910	707.84698	 24.40	
 11.897	122.732	 18.31476	  5.13736	 12.82947	 14.92996	  3.85953	 -0.68130	 19.52023	707.76001	 24.40	
 11.903	114.597	 18.31067	  5.92505	 11.89502	 15.46146	  3.47008	 -0.70256	 19.52676	707.78699	 24.40	
 11.893	106.346	 18.32807	  6.85405	 10.90545	 15.86421	  3.19756	 -0.73227	 19.53794	707.81500	 24.40	
 11.892	 98.155	 18.31203	  7.82639	  9.88833	 16.07975	  3.02945	 -0.72914	 19.52228	707.80701	 24.50	
 11.900	 90.000	 18.31783	  8.83495	  8.88274	 16.16204	  2.96374	 -0.71575	 19.52992	707.74500	 24.40	
 11.892	 81.845	 18.35206	  9.87449	  7.90865	 16.10106	  3.04413	 -0.68001	 19.56667	707.82098	 24.40	
 11.893	 73.654	 18.31503	 10.84928	  6.95077	 15.83526	  3.21101	 -0.62510	 19.53068	707.84698	 24.40	
 11.903	 65.403	 18.32240	 11.85606	  6.06056	 15.45041	  3.48431	 -0.59682	 19.54440	707.72803	 24.50	
 11.897	 57.268	 18.32616	 12.79293	  5.25682	 14.91979	  3.87091	 -0.59561	 19.54764	707.84399	 24.50	
 11.894	 49.133	 18.32899	 13.64599	  4.54802	 14.26279	  4.37462	 -0.60511	 19.54638	707.78699	 24.50	
 11.902	 40.852	 18.29386	 14.38618	  3.92128	 13.47982	  4.94975	 -0.63926	 19.52097	707.79102	 24.50	
 11.909	 32.701	 18.31194	 15.04912	  3.44461	 12.64130	  5.66704	 -0.66752	 19.54827	707.72803	 24.50	
 11.889	 24.555	 18.31185	 15.58574	  3.07741	 11.70301	  6.47199	 -0.68045	 19.55302	707.83301	 24.50	
 11.890	 16.390	 18.28465	 15.93908	  2.80507	 10.71581	  7.32908	 -0.69249	 19.53032	707.90302	 24.50	
 11.899	  8.217	 18.28950	 16.17261	  2.64246	  9.72393	  8.26149	 -0.68558	 19.54477	707.88397	 24.50	
 11.900	  0.000	 18.28545	 16.24445	  2.58475	  8.70373	  9.25117	 -0.68415	 19.54802	707.81299	 24.50	
 11.899	 -8.217	 18.25539	 16.13165	  2.63041	  7.70165	 10.22791	 -0.67781	 19.51409	707.82898	 24.50	
 11.890	-16.390	 18.26034	 15.90005	  2.78375	  6.77686	 11.22661	 -0.66926	 19.54173	707.77600	 24.50	
 11.889	-24.555	 18.26096	 15.51310	  3.04959	  5.89984	 12.20860	 -0.67635	 19.55272	707.85199	 24.50	
 11.909	-32.701	 18.23070	 14.96357	  3.42835	  5.08253	 13.11331	 -0.69378	 19.53359	707.97400	 24.50	
 11.902	-40.852	 18.22927	 14.32069	  3.92233	  4.37693	 13.95223	 -0.70730	 19.54116	707.94800	 24.50	
 11.894	-49.133	 18.21588	 13.52648	  4.53361	  3.75111	 14.71197	 -0.73585	 19.53472	707.80701	 24.50	
 11.897	-57.268	 18.21803	 12.66714	  5.25116	  3.24318	 15.35911	 -0.77333	 19.55203	707.82898	 24.50	
 11.903	-65.403	 18.20935	 11.71772	  6.04943	  2.84515	 15.86665	 -0.79359	 19.53764	707.80798	 24.50	
 11.893	-73.654	 18.21795	 10.72426	  6.93274	  2.58607	 16.23567	 -0.80230	 19.54608	707.69702	 24.50	
 11.892	-81.845	 18.25199	  9.72936	  7.88594	  2.42008	 16.47833	 -0.79992	 19.56977	707.79303	 24.50	
 11.900	-90.000	 18.22641	  8.70265	  8.84666	  2.34431	 16.53878	 -0.78847	 19.53954	707.83899	 24.50	
 11.892	-98.155	 18.24060	  7.71418	  9.85573	  2.40618	 16.46542	 -0.77752	 19.54626	707.96399	 24.50	
 11.893	-106.346	 18.25308	  6.77162	 10.87157	  2.56724	 16.25847	 -0.74338	 19.55796	707.85999	 24.50	
 11.903	-114.597	 18.21527	  5.86146	 11.83178	  2.82704	 15.86092	 -0.69905	 19.53179	707.82202	 24.50	
 11.897	-122.732	 18.22571	  5.05088	 12.77465	  3.21488	 15.35389	 -0.66947	 19.54119	707.88800	 24.50	
 11.894	-130.867	 18.23116	  4.33252	 13.63356	  3.72705	 14.71150	 -0.65499	 19.54171	707.98499	 24.50	
 11.902	-139.148	 18.25600	  3.69886	 14.43025	  4.36195	 13.96694	 -0.66099	 19.56318	707.90100	 24.50	
 11.909	-147.299	 18.24968	  3.19268	 15.06458	  5.07248	 13.12059	 -0.67723	 19.54797	707.91101	 24.50	
 11.889	-155.445	 18.24593	  2.85120	 15.56607	  5.88140	 12.19692	 -0.67854	 19.53381	707.85199	 24.50	
 11.890	-163.610	 18.27761	  2.62134	 15.97149	  6.77879	 11.23165	 -0.69161	 19.55263	707.87701	 24.50	
 11.899	-171.783	 18.28475	  2.49982	 16.20973	  7.71946	 10.25840	 -0.69080	 19.54288	707.85199	 24.50	
 11.900	180.000	 18.26500	  2.47384	 16.25583	  8.69544	  9.25180	 -0.68580	 19.51458	707.90002	 24.50	
 13.600	180.000	 17.81404	  1.38108	 16.91039	  8.31158	  8.86755	 -0.84490	 19.51391	707.88000	 24.50	
 13.608	-172.853	 17.81886	  1.38779	 16.85734	  7.33809	  9.84391	 -0.85552	 19.53568	707.87500	 24.50	
 13.611	-165.583	 17.78851	  1.48169	 16.63580	  6.36718	 10.83070	 -0.85288	 19.52390	707.97302	 24.50	
 13.601	-158.353	 17.78640	  1.68276	 16.30586	  5.45955	 11.82496	 -0.85008	 19.53259	707.82202	 24.50	
 13.609	-151.210	 17.77580	  1.96676	 15.84366	  4.63093	 12.75715	 -0.84582	 19.53484	707.86102	 24.50	
 13.611	-143.999	 17.77147	  2.37331	 15.24867	  3.89295	 13.64571	 -0.82068	 19.53996	707.78003	 24.50	
 13.601	-136.825	 17.74903	  2.88960	 14.51791	  3.22097	 14.44379	 -0.79699	 19.51116	707.71100	 24.50	
 13.596	-129.640	 17.77154	  3.51710	 13.74041	  2.65354	 15.20189	 -0.78603	 19.54142	707.90100	 24.50	
