FileType=PCF
NHL=14
Date=08/28/17	16:47:28
Facility=APL
Serial=16328-12
Customer=NASA
NP=6
Mach=0.100000
Calibration=1:1
CalPts=490
TstPts=95
PortNumbering=AP Standard
Units=Torr C m/s kg/m^3 deg mm 
Theta[deg]	Phi[deg]	P1[Torr]	P2[Torr]	P3[Torr]	P4[Torr]	P5[Torr]	P6[Torr]	Pt[Torr]	Ps[Abs,Torr]	Ts[C]	
  0.000	  0.000	  4.95795	  2.61280	  2.64972	  2.60001	  2.72267	  0.03508	  4.95286	708.19299	 24.30	
  1.691	128.401	  4.95588	  2.46130	  2.78970	  2.78120	  2.53349	  0.03117	  4.95117	707.97302	 24.30	
  1.692	 77.194	  4.94867	  2.65641	  2.58820	  2.82336	  2.48586	  0.02912	  4.94594	708.07703	 24.30	
  1.699	 26.182	  4.95767	  2.81962	  2.43561	  2.70190	  2.61248	  0.02959	  4.95465	707.98798	 24.30	
  1.699	-26.182	  4.95573	  2.80432	  2.43268	  2.49575	  2.79776	  0.02421	  4.95110	707.98798	 24.30	
  1.692	-77.194	  4.96705	  2.63951	  2.59774	  2.37840	  2.92985	  0.02113	  4.96054	708.09698	 24.30	
  1.691	-128.401	  4.95431	  2.45721	  2.77358	  2.41528	  2.87961	  0.02479	  4.95089	708.13000	 24.30	
  1.700	180.000	  4.97266	  2.38125	  2.88506	  2.60327	  2.72042	  0.03128	  4.96558	708.27698	 24.30	
  3.400	180.000	  4.95602	  2.11686	  3.10922	  2.56634	  2.68289	  0.01670	  4.95795	708.19800	 24.30	
  3.388	-152.325	  4.95596	  2.16447	  3.04505	  2.34503	  2.90813	  0.01178	  4.95864	708.21600	 24.30	
  3.397	-124.529	  4.94084	  2.29483	  2.87607	  2.17526	  3.07681	  0.00675	  4.94578	708.14502	 24.30	
  3.399	-96.763	  4.94641	  2.50406	  2.65959	  2.10309	  3.16551	  0.00549	  4.95465	708.07703	 24.30	
  3.394	-69.283	  4.93678	  2.73000	  2.42920	  2.12354	  3.12992	  0.00357	  4.94169	708.19299	 24.30	
  3.400	-41.398	  4.96007	  2.94126	  2.26097	  2.25653	  3.00310	  0.00520	  4.96321	708.16803	 24.30	
  3.401	-14.021	  4.95040	  3.05071	  2.15955	  2.44091	  2.79314	  0.00724	  4.95314	707.96198	 24.30	
  3.401	 14.021	  4.95036	  3.05368	  2.16778	  2.68074	  2.56286	  0.01301	  4.95325	708.12201	 24.30	
  3.400	 41.398	  4.95078	  2.93777	  2.26997	  2.88230	  2.37538	  0.01498	  4.94971	708.08801	 24.30	
  3.394	 69.283	  4.95459	  2.74964	  2.45182	  3.01279	  2.26920	  0.01894	  4.95543	708.13702	 24.30	
  3.399	 96.763	  4.96547	  2.52519	  2.68244	  3.05113	  2.24941	  0.02035	  4.96500	708.14697	 24.30	
  3.397	124.529	  4.95808	  2.32090	  2.88713	  2.97181	  2.31311	  0.01904	  4.95578	708.12299	 24.30	
  3.388	152.325	  4.95216	  2.17139	  3.04056	  2.78767	  2.46407	  0.01671	  4.95270	708.13098	 24.20	
  5.099	161.165	  4.91961	  1.86825	  3.28985	  2.75905	  2.40757	 -0.00337	  4.94424	708.13098	 24.20	
  5.109	142.013	  4.93623	  1.98281	  3.17455	  2.98958	  2.21439	 -0.00325	  4.95697	708.09497	 24.20	
  5.095	123.033	  4.93164	  2.15224	  2.98083	  3.15520	  2.06971	 -0.00056	  4.95431	708.22601	 24.20	
  5.105	104.191	  4.93006	  2.35893	  2.75245	  3.26064	  1.97747	 -0.00353	  4.95191	708.12299	 24.20	
  5.093	 85.207	  4.93011	  2.60023	  2.51276	  3.27863	  1.96618	 -0.00101	  4.94993	708.10602	 24.20	
  5.104	 66.290	  4.94295	  2.84714	  2.28942	  3.22108	  2.02019	 -0.00023	  4.96334	708.17798	 24.20	
  5.094	 47.331	  4.93102	  3.05415	  2.09232	  3.07347	  2.13418	 -0.00094	  4.94902	708.18701	 24.20	
  5.089	 28.397	  4.93946	  3.21627	  1.96011	  2.88115	  2.31156	 -0.00494	  4.96046	708.05200	 24.20	
  5.096	  9.576	  4.91608	  3.28583	  1.88144	  2.63577	  2.51939	 -0.00607	  4.94048	708.03497	 24.20	
  5.096	 -9.576	  4.93896	  3.29922	  1.88575	  2.40174	  2.77369	 -0.01356	  4.96368	708.13000	 24.20	
  5.089	-28.397	  4.92171	  3.19857	  1.95077	  2.17781	  2.99324	 -0.01790	  4.94891	708.21802	 24.20	
  5.094	-47.331	  4.91992	  3.04113	  2.08237	  1.99601	  3.19342	 -0.01856	  4.94792	708.20099	 24.20	
  5.104	-66.290	  4.93383	  2.83541	  2.28050	  1.87612	  3.34894	 -0.01915	  4.96287	708.16803	 24.20	
  5.093	-85.207	  4.91965	  2.58720	  2.50336	  1.81959	  3.40073	 -0.02040	  4.95014	708.14203	 24.20	
  5.105	-104.191	  4.91094	  2.33928	  2.74201	  1.83107	  3.37392	 -0.01785	  4.94192	708.06097	 24.20	
  5.095	-123.033	  4.91733	  2.13070	  2.97524	  1.92573	  3.27427	 -0.01207	  4.94915	708.22101	 24.20	
  5.109	-142.013	  4.92044	  1.96707	  3.16395	  2.07898	  3.10298	 -0.00887	  4.95115	708.11102	 24.20	
  5.099	-161.165	  4.92011	  1.86292	  3.28925	  2.28426	  2.87934	 -0.00629	  4.94761	708.22101	 24.20	
  5.100	180.000	  4.93147	  1.83630	  3.33717	  2.52349	  2.64573	 -0.00381	  4.95529	708.35400	 24.20	
  6.800	180.000	  4.89915	  1.54199	  3.57280	  2.47613	  2.60317	 -0.03249	  4.96569	708.16803	 24.20	
  6.796	-166.229	  4.89112	  1.56098	  3.53745	  2.23995	  2.83351	 -0.03145	  4.96171	708.12799	 24.20	
  6.808	-152.311	  4.87451	  1.62829	  3.43444	  2.01616	  3.05567	 -0.03461	  4.94659	708.06000	 24.20	
  6.795	-138.383	  4.87944	  1.75407	  3.28983	  1.82961	  3.26950	 -0.04268	  4.95477	708.11401	 24.20	
  6.792	-124.591	  4.87561	  1.91841	  3.09586	  1.67999	  3.43714	 -0.04211	  4.95057	708.12299	 24.20	
  6.787	-110.754	  4.87981	  2.12198	  2.87668	  1.58224	  3.55989	 -0.04655	  4.95822	708.32001	 24.20	
  6.800	-96.985	  4.86874	  2.34361	  2.63252	  1.52815	  3.61322	 -0.05399	  4.94592	708.15002	 24.10	
  6.800	-83.015	  4.87200	  2.59089	  2.39141	  1.53104	  3.61237	 -0.05402	  4.95122	708.24701	 24.10	
  6.787	-69.246	  4.87939	  2.83449	  2.16963	  1.58465	  3.55832	 -0.05223	  4.95532	708.26001	 24.10	
  6.792	-55.409	  4.89117	  3.06825	  1.97115	  1.68705	  3.45103	 -0.05242	  4.96852	708.22998	 24.10	
  6.795	-41.617	  4.88678	  3.25921	  1.80172	  1.82866	  3.27916	 -0.05038	  4.96141	708.16699	 24.10	
  6.808	-27.689	  4.87480	  3.40426	  1.67414	  2.01449	  3.05983	 -0.04440	  4.94658	708.17902	 24.10	
  6.796	-13.771	  4.87868	  3.49622	  1.60280	  2.23100	  2.82935	 -0.04064	  4.94750	708.20203	 24.10	
  6.800	  0.000	  4.88388	  3.53385	  1.58036	  2.46751	  2.59328	 -0.04174	  4.94916	708.26801	 24.10	
  6.796	 13.771	  4.87296	  3.49618	  1.60317	  2.70146	  2.35700	 -0.03706	  4.93831	708.19000	 24.10	
  6.808	 27.689	  4.88963	  3.41785	  1.68370	  2.94197	  2.14933	 -0.03218	  4.95317	708.16199	 24.10	
  6.795	 41.617	  4.90177	  3.27332	  1.81599	  3.15600	  1.97482	 -0.03023	  4.96408	708.18500	 24.10	
  6.792	 55.409	  4.90390	  3.08114	  1.98489	  3.32644	  1.83414	 -0.02584	  4.96134	708.21301	 24.10	
  6.787	 69.246	  4.88906	  2.84945	  2.18049	  3.43816	  1.73051	 -0.02338	  4.94701	708.23199	 24.10	
  6.800	 83.015	  4.90071	  2.62075	  2.40817	  3.51242	  1.68163	 -0.03035	  4.96069	708.21600	 24.10	
  6.800	 96.985	  4.89017	  2.36931	  2.64653	  3.50688	  1.67777	 -0.03185	  4.94973	708.20697	 24.10	
  6.787	110.754	  4.89214	  2.14911	  2.88150	  3.44374	  1.73276	 -0.02860	  4.94937	708.16803	 24.10	
  6.792	124.591	  4.90716	  1.94992	  3.11255	  3.33459	  1.83573	 -0.02999	  4.96702	708.14697	 24.10	
  6.795	138.383	  4.89567	  1.77816	  3.29655	  3.15790	  1.97085	 -0.02908	  4.95935	708.20898	 24.10	
  6.808	152.311	  4.88935	  1.64361	  3.44338	  2.94726	  2.14778	 -0.02904	  4.95265	708.20203	 24.10	
  6.796	166.229	  4.88588	  1.56469	  3.53103	  2.71204	  2.35956	 -0.03003	  4.95039	708.23999	 24.10	
  8.491	168.704	  4.82430	  1.26481	  3.74806	  2.65906	  2.29016	 -0.06642	  4.95039	708.21002	 24.10	
  8.502	157.493	  4.82658	  1.32946	  3.67244	  2.90024	  2.06916	 -0.05814	  4.95111	708.16400	 24.10	
  8.494	146.194	  4.82772	  1.43509	  3.54499	  3.12697	  1.86968	 -0.06231	  4.94756	708.09198	 24.10	
  8.495	135.039	  4.82497	  1.57496	  3.37753	  3.32708	  1.69738	 -0.06690	  4.94598	708.28198	 24.10	
  8.487	123.723	  4.83032	  1.75449	  3.17664	  3.49943	  1.55798	 -0.06774	  4.94829	708.26099	 24.10	
  8.492	112.575	  4.82857	  1.95720	  2.94989	  3.62276	  1.46103	 -0.06545	  4.94971	708.22400	 24.10	
  8.510	101.220	  4.83614	  2.19070	  2.71110	  3.70670	  1.39884	 -0.06925	  4.95316	708.12598	 24.10	
  8.500	 90.000	  4.83366	  2.43171	  2.46253	  3.73000	  1.37844	 -0.06965	  4.95313	708.17603	 24.00	
  8.510	 78.780	  4.83115	  2.67981	  2.22011	  3.70113	  1.39733	 -0.06230	  4.94982	708.27802	 24.00	
  8.492	 67.425	  4.84420	  2.93409	  1.99587	  3.63101	  1.46306	 -0.05745	  4.96249	708.27100	 24.00	
  8.487	 56.277	  4.84788	  3.16103	  1.79561	  3.50767	  1.56313	 -0.06109	  4.96770	708.21600	 24.00	
  8.495	 44.961	  4.83527	  3.36028	  1.61245	  3.32925	  1.69694	 -0.06592	  4.95769	708.25500	 24.00	
  8.494	 33.806	  4.83712	  3.52899	  1.47402	  3.12620	  1.87130	 -0.06757	  4.95573	708.24103	 24.00	
  8.502	 22.507	  4.82021	  3.64483	  1.36553	  2.89083	  2.06675	 -0.07074	  4.94446	708.27802	 24.00	
  8.491	 11.296	  4.82778	  3.72503	  1.30706	  2.65386	  2.29225	 -0.07753	  4.95399	708.21301	 24.00	
  8.500	  0.000	  4.82770	  3.75327	  1.28287	  2.40468	  2.53379	 -0.07915	  4.95380	708.27502	 24.00	
  8.491	-11.296	  4.83342	  3.72882	  1.30596	  2.16744	  2.78397	 -0.07509	  4.96322	708.22998	 24.00	
  8.502	-22.507	  4.81345	  3.63497	  1.36075	  1.93438	  3.01262	 -0.07714	  4.94374	708.40302	 24.00	
  8.494	-33.806	  4.82764	  3.51461	  1.46980	  1.73265	  3.25247	 -0.08357	  4.96382	708.15601	 24.00	
  8.495	-44.961	  4.81848	  3.33856	  1.60458	  1.55450	  3.44695	 -0.08782	  4.95459	708.29498	 24.00	
  8.487	-56.277	  4.81694	  3.12889	  1.78160	  1.41924	  3.60695	 -0.09310	  4.95441	708.25702	 24.00	
  8.492	-67.425	  4.81612	  2.90211	  1.98292	  1.31615	  3.73221	 -0.09200	  4.95717	708.28003	 24.00	
  8.510	-78.780	  4.81731	  2.65239	  2.21103	  1.25072	  3.80985	 -0.10225	  4.95704	708.21002	 24.00	
  8.500	-90.000	  4.81547	  2.40345	  2.45189	  1.22838	  3.83642	 -0.10275	  4.95638	708.20697	 24.00	
  8.510	-101.220	  4.80701	  2.15524	  2.69375	  1.24689	  3.80256	 -0.09385	  4.94384	708.12598	 24.00	
  8.492	-112.575	  4.81076	  1.93146	  2.93988	  1.31372	  3.72658	 -0.08173	  4.95001	708.07501	 24.00	
  8.487	-123.723	  4.80717	  1.72881	  3.16291	  1.41379	  3.59948	 -0.07746	  4.94466	708.09497	 24.00	
  8.495	-135.039	  4.80766	  1.54985	  3.36806	  1.55085	  3.43490	 -0.07888	  4.94367	708.13599	 24.00	
  8.494	-146.194	  4.80978	  1.41901	  3.53323	  1.72847	  3.23629	 -0.07434	  4.94617	708.19202	 24.00	
  8.502	-157.493	  4.81430	  1.31970	  3.66250	  1.93676	  3.00995	 -0.06847	  4.94680	708.23199	 23.90	
  8.491	-168.704	  4.81286	  1.25882	  3.73783	  2.16053	  2.77133	 -0.06681	  4.94187	708.25702	 24.00	
  8.500	180.000	  4.82037	  1.24012	  3.77099	  2.40539	  2.53023	 -0.06953	  4.94584	708.16400	 23.90	
 10.200	180.000	  4.75275	  0.94539	  3.97605	  2.33597	  2.46103	 -0.10950	  4.96188	708.27698	 23.90	
 10.191	-170.497	  4.72608	  0.95385	  3.93434	  2.08144	  2.69248	 -0.10842	  4.93578	708.29700	 23.90	
 10.210	-161.034	  4.74047	  1.00627	  3.88028	  1.85500	  2.94643	 -0.10760	  4.95305	708.30798	 23.90	
 10.194	-151.526	  4.73138	  1.09349	  3.76132	  1.63481	  3.18254	 -0.10837	  4.94585	708.27802	 23.90	
 10.190	-142.105	  4.73249	  1.20750	  3.61439	  1.44376	  3.40100	 -0.11110	  4.94983	708.33398	 23.90	
 10.215	-132.646	  4.73676	  1.35494	  3.43962	  1.28127	  3.59912	 -0.11185	  4.95839	708.19800	 23.90	
 10.203	-123.092	  4.73704	  1.53299	  3.22853	  1.14445	  3.76334	 -0.11340	  4.95676	708.24103	 23.90	
 10.192	-113.678	  4.73384	  1.73561	  2.99304	  1.04184	  3.88675	 -0.11911	  4.95427	708.19299	 23.90	
 10.208	-104.249	  4.73273	  1.95758	  2.75157	  0.97087	  3.97655	 -0.13152	  4.95370	708.30499	 23.90	
 10.210	-94.801	  4.72589	  2.19419	  2.49812	  0.93343	  4.01785	 -0.14119	  4.95070	708.27502	 23.90	
 10.210	-85.199	  4.73195	  2.45377	  2.24762	  0.93469	  4.02558	 -0.14329	  4.95659	708.15399	 23.90	
 10.208	-75.751	  4.73348	  2.70451	  2.01138	  0.96973	  3.98192	 -0.14536	  4.95793	708.12000	 23.90	
 10.192	-66.322	  4.73376	  2.95000	  1.78902	  1.04384	  3.89150	 -0.13516	  4.95639	708.02600	 23.90	
 10.203	-56.908	  4.72355	  3.18046	  1.58093	  1.14245	  3.75808	 -0.13148	  4.94492	708.11401	 23.90	
 10.215	-47.354	  4.73010	  3.40178	  1.40229	  1.27771	  3.60037	 -0.13109	  4.95069	708.15302	 23.90	
 10.190	-37.895	  4.72088	  3.57589	  1.25335	  1.43931	  3.39556	 -0.12623	  4.93874	708.10602	 23.90	
 10.194	-28.474	  4.73298	  3.73267	  1.13906	  1.63285	  3.18515	 -0.11738	  4.94770	708.07202	 23.90	
 10.210	-18.966	  4.74782	  3.85882	  1.05409	  1.85209	  2.95595	 -0.11112	  4.96161	708.16400	 23.90	
 10.191	 -9.503	  4.74487	  3.92365	  1.00422	  2.08176	  2.70810	 -0.11479	  4.95316	708.14502	 23.90	
 10.200	  0.000	  4.73647	  3.94321	  0.98453	  2.32116	  2.45769	 -0.11737	  4.94245	708.10602	 23.90	
 10.191	  9.503	  4.74212	  3.92662	  1.00259	  2.57725	  2.21418	 -0.11670	  4.94634	708.10797	 23.90	
 10.210	 18.966	  4.75598	  3.87396	  1.05669	  2.83101	  1.99012	 -0.10785	  4.96162	708.16400	 23.90	
 10.194	 28.474	  4.75655	  3.76099	  1.14704	  3.06996	  1.77847	 -0.10324	  4.95884	708.11200	 23.90	
 10.190	 37.895	  4.74565	  3.60457	  1.26195	  3.28453	  1.58390	 -0.10205	  4.94560	708.12201	 23.90	
 10.215	 47.354	  4.75115	  3.43008	  1.41041	  3.48893	  1.42077	 -0.09985	  4.95010	708.21301	 23.80	
 10.203	 56.908	  4.75334	  3.21780	  1.59215	  3.65375	  1.29010	 -0.09378	  4.95060	708.12299	 23.80	
 10.192	 66.322	  4.75499	  2.98451	  1.79774	  3.78360	  1.19077	 -0.09412	  4.95036	708.12201	 23.80	
 10.208	 75.751	  4.76326	  2.74703	  2.02379	  3.88260	  1.12282	 -0.09890	  4.95770	708.23199	 23.80	
 10.210	 85.199	  4.77262	  2.49870	  2.26750	  3.93798	  1.08901	 -0.10752	  4.97033	708.22302	 23.80	
 10.210	 94.801	  4.76328	  2.23679	  2.51746	  3.92963	  1.08670	 -0.11478	  4.95939	708.13000	 23.80	
 10.208	104.249	  4.75414	  1.98812	  2.76477	  3.87876	  1.11706	 -0.11545	  4.94905	708.21301	 23.80	
 10.192	113.678	  4.76112	  1.76751	  3.01059	  3.79416	  1.19110	 -0.11236	  4.95785	708.16803	 23.80	
 10.203	123.092	  4.75653	  1.55812	  3.23992	  3.66439	  1.28760	 -0.10860	  4.95284	708.29401	 23.80	
 10.215	132.646	  4.74092	  1.37126	  3.43907	  3.48906	  1.41426	 -0.10650	  4.93734	708.22302	 23.80	
 10.190	142.105	  4.74812	  1.22287	  3.62414	  3.29413	  1.58070	 -0.10611	  4.94444	708.06897	 23.80	
 10.194	151.526	  4.76547	  1.10963	  3.78360	  3.08323	  1.77815	 -0.09896	  4.96417	708.18500	 23.80	
 10.210	161.034	  4.76029	  1.01958	  3.89298	  2.84347	  1.98773	 -0.09742	  4.96480	708.10303	 23.80	
 10.191	170.497	  4.74860	  0.96682	  3.94807	  2.58945	  2.21465	 -0.10340	  4.95285	708.15900	 23.80	
 11.899	171.783	  4.64531	  0.66717	  4.12628	  2.50066	  2.12265	 -0.14501	  4.94462	708.15399	 23.80	
 11.890	163.610	  4.66385	  0.71601	  4.08298	  2.75969	  1.89999	 -0.13735	  4.96141	708.13702	 23.80	
 11.889	155.445	  4.66184	  0.78928	  3.98538	  3.00240	  1.68253	 -0.13262	  4.95517	708.08899	 23.80	
 11.909	147.299	  4.65292	  0.88624	  3.84972	  3.23201	  1.47576	 -0.13439	  4.94667	708.18201	 23.80	
 11.902	139.148	  4.66462	  1.02230	  3.69358	  3.45463	  1.30131	 -0.13940	  4.95774	708.23199	 23.80	
 11.894	130.867	  4.66098	  1.18010	  3.49747	  3.64411	  1.14769	 -0.14380	  4.95223	708.18201	 23.80	
 11.897	122.732	  4.66141	  1.36248	  3.28531	  3.80842	  1.02151	 -0.14852	  4.95147	708.19501	 23.80	
 11.903	114.597	  4.66918	  1.56759	  3.05773	  3.94762	  0.92034	 -0.15252	  4.96070	708.15900	 23.80	
 11.893	106.346	  4.67159	  1.79805	  2.81031	  4.04421	  0.84966	 -0.15489	  4.96146	708.23798	 23.80	
 11.892	 98.155	  4.66408	  2.03342	  2.55322	  4.09908	  0.80171	 -0.15724	  4.95635	708.14697	 23.80	
 11.900	 90.000	  4.65539	  2.27629	  2.29913	  4.11064	  0.78657	 -0.15324	  4.94746	708.19501	 23.80	
 11.892	 81.845	  4.66582	  2.53267	  2.05772	  4.09982	  0.80031	 -0.14684	  4.95983	708.14203	 23.70	
 11.893	 73.654	  4.65063	  2.77920	  1.81465	  4.02613	  0.84167	 -0.13681	  4.94331	708.27698	 23.70	
 11.903	 65.403	  4.64586	  3.02517	  1.58782	  3.92386	  0.91389	 -0.12957	  4.94060	708.13898	 23.70	
 11.897	 57.268	  4.66136	  3.27064	  1.39343	  3.80179	  1.02131	 -0.13020	  4.95292	708.22302	 23.70	
 11.894	 49.133	  4.65331	  3.47932	  1.21074	  3.63074	  1.14571	 -0.13471	  4.94795	708.12000	 23.70	
 11.902	 40.852	  4.66387	  3.68280	  1.05471	  3.44724	  1.30153	 -0.13670	  4.96174	708.09497	 23.70	
 11.909	 32.701	  4.66330	  3.84503	  0.92461	  3.23155	  1.47751	 -0.14142	  4.96166	708.12299	 23.70	
 11.889	 24.555	  4.65771	  3.97100	  0.82582	  2.99078	  1.68055	 -0.14779	  4.95842	708.17798	 23.70	
 11.890	 16.390	  4.66501	  4.07133	  0.75358	  2.75142	  1.90291	 -0.15209	  4.96648	708.10498	 23.70	
 11.899	  8.217	  4.64884	  4.11645	  0.70610	  2.49285	  2.12647	 -0.15497	  4.95519	708.09100	 23.70	
 11.900	  0.000	  4.65481	  4.14025	  0.69208	  2.24107	  2.37837	 -0.15549	  4.96180	708.15002	 23.70	
 11.899	 -8.217	  4.63942	  4.10506	  0.70505	  1.98924	  2.62054	 -0.14754	  4.94454	708.00098	 23.70	
 11.890	-16.390	  4.63573	  4.04064	  0.74857	  1.75633	  2.86477	 -0.14686	  4.94370	708.15900	 23.70	
 11.889	-24.555	  4.63521	  3.94229	  0.82049	  1.53556	  3.10969	 -0.14760	  4.94687	708.22302	 23.70	
 11.909	-32.701	  4.63730	  3.81317	  0.92063	  1.33587	  3.34387	 -0.15529	  4.95415	708.15100	 23.70	
 11.902	-40.852	  4.63189	  3.64304	  1.04740	  1.15911	  3.54953	 -0.16166	  4.95279	708.12799	 23.70	
 11.894	-49.133	  4.62312	  3.43873	  1.20341	  1.00020	  3.73684	 -0.16328	  4.94218	708.09100	 23.70	
 11.897	-57.268	  4.63250	  3.22980	  1.38190	  0.87110	  3.90661	 -0.16881	  4.95894	708.13000	 23.70	
 11.903	-65.403	  4.62938	  2.99196	  1.58109	  0.76906	  4.03608	 -0.17259	  4.95500	708.01202	 23.70	
 11.893	-73.654	  4.63415	  2.74196	  1.80766	  0.70291	  4.12635	 -0.18082	  4.95641	708.05701	 23.70	
 11.892	-81.845	  4.63400	  2.48988	  2.04196	  0.66031	  4.18271	 -0.18120	  4.95496	708.03497	 23.70	
 11.900	-90.000	  4.62981	  2.23354	  2.28630	  0.64317	  4.19814	 -0.18061	  4.95215	708.06403	 23.70	
 11.892	-98.155	  4.62642	  1.98750	  2.53436	  0.65925	  4.17448	 -0.17865	  4.94904	708.04102	 23.70	
 11.893	-106.346	  4.63822	  1.75505	  2.78998	  0.70156	  4.12815	 -0.16943	  4.95883	708.15002	 23.70	
 11.903	-114.597	  4.64066	  1.53279	  3.03905	  0.77210	  4.03700	 -0.15886	  4.96382	708.06000	 23.70	
 11.897	-122.732	  4.63708	  1.32960	  3.27098	  0.87421	  3.90299	 -0.14960	  4.95766	708.12799	 23.60	
 11.894	-130.867	  4.64161	  1.15934	  3.48525	  1.00686	  3.74435	 -0.14970	  4.95971	707.98798	 23.60	
 11.902	-139.148	  4.64371	  1.00355	  3.68245	  1.16424	  3.55238	 -0.14785	  4.96094	707.98999	 23.60	
 11.909	-147.299	  4.63299	  0.87228	  3.83728	  1.33978	  3.33403	 -0.14852	  4.94740	708.00098	 23.60	
 11.889	-155.445	  4.64979	  0.78178	  3.97661	  1.54783	  3.11474	 -0.14855	  4.96121	708.05200	 23.60	
 11.890	-163.610	  4.63506	  0.70966	  4.05887	  1.76468	  2.85841	 -0.14960	  4.94106	707.89801	 23.60	
 11.899	-171.783	  4.64147	  0.66485	  4.12418	  2.00126	  2.61392	 -0.15271	  4.94803	707.98499	 23.60	
 11.900	180.000	  4.64747	  0.65184	  4.14863	  2.24891	  2.36895	 -0.15152	  4.95031	708.08099	 23.60	
 13.600	180.000	  4.54382	  0.36056	  4.32249	  2.15556	  2.27437	 -0.19294	  4.96110	708.14697	 23.60	
 13.608	-172.853	  4.52546	  0.36902	  4.29113	  1.90359	  2.51212	 -0.19618	  4.94625	708.13898	 23.60	
 13.611	-165.583	  4.53238	  0.40408	  4.24580	  1.66880	  2.76658	 -0.19826	  4.95630	708.04102	 23.60	
 13.601	-158.353	  4.52499	  0.46824	  4.15160	  1.43981	  3.01293	 -0.19244	  4.95083	707.95697	 23.60	
 13.609	-151.210	  4.53234	  0.54903	  4.04501	  1.23585	  3.25198	 -0.19654	  4.96322	707.94000	 23.60	
 13.611	-143.999	  4.51806	  0.65659	  3.88602	  1.04098	  3.47044	 -0.18728	  4.95098	708.12299	 23.60	
 13.601	-136.825	  4.51073	  0.78570	  3.70453	  0.87069	  3.67217	 -0.18341	  4.94679	708.05298	 23.60	
 13.596	-129.640	  4.52355	  0.94664	  3.51581	  0.72804	  3.86817	 -0.18260	  4.96321	708.08899	 23.60	
