FileType=PCF
NHL=14
Date=08/28/17	16:07:09
Facility=APL
Serial=16328-12
Customer=NASA
NP=6
Mach=0.050000
Calibration=1:1
CalPts=490
TstPts=95
PortNumbering=AP Standard
Units=Torr C m/s kg/m^3 deg mm 
Theta[deg]	Phi[deg]	P1[Torr]	P2[Torr]	P3[Torr]	P4[Torr]	P5[Torr]	P6[Torr]	Pt[Torr]	Ps[Abs,Torr]	Ts[C]	
  0.000	  0.000	  1.27853	  0.68552	  0.69668	  0.69119	  0.70528	  0.00784	  1.27087	707.68103	 24.50	
  1.691	128.401	  1.27575	  0.65093	  0.72147	  0.71729	  0.66846	  0.00774	  1.26810	707.73102	 24.50	
  1.692	 77.194	  1.27297	  0.69074	  0.67772	  0.72586	  0.65876	  0.00748	  1.26527	707.68298	 24.50	
  1.699	 26.182	  1.27726	  0.73095	  0.64412	  0.69913	  0.68335	  0.00720	  1.26955	707.63599	 24.50	
  1.699	-26.182	  1.27033	  0.72748	  0.63710	  0.64837	  0.72696	  0.00578	  1.26368	707.68701	 24.50	
  1.692	-77.194	  1.27199	  0.68801	  0.67246	  0.62089	  0.75946	  0.00518	  1.26473	707.64203	 24.50	
  1.691	-128.401	  1.27623	  0.64477	  0.72182	  0.63191	  0.75026	  0.00516	  1.27020	707.74902	 24.50	
  1.700	180.000	  1.27467	  0.62744	  0.74363	  0.67494	  0.70441	  0.00645	  1.26721	707.78400	 24.50	
  3.400	180.000	  1.27216	  0.55871	  0.80491	  0.66605	  0.69945	  0.00403	  1.26662	707.75299	 24.50	
  3.388	-152.325	  1.27086	  0.56981	  0.78933	  0.61156	  0.75526	  0.00248	  1.26713	707.70801	 24.50	
  3.397	-124.529	  1.28123	  0.60874	  0.75432	  0.57562	  0.80667	  0.00066	  1.27650	707.65601	 24.50	
  3.399	-96.763	  1.27694	  0.65886	  0.69659	  0.55542	  0.82582	  0.00032	  1.27299	707.77600	 24.50	
  3.394	-69.283	  1.28342	  0.72011	  0.64347	  0.56464	  0.82214	  0.00039	  1.27844	707.84100	 24.50	
  3.400	-41.398	  1.28238	  0.77026	  0.59797	  0.59442	  0.78672	  0.00029	  1.27776	707.80103	 24.50	
  3.401	-14.021	  1.28041	  0.79881	  0.57391	  0.64045	  0.73435	  0.00092	  1.27469	707.68298	 24.50	
  3.401	 14.021	  1.27718	  0.79731	  0.57310	  0.69741	  0.67395	  0.00337	  1.27052	707.68298	 24.50	
  3.400	 41.398	  1.27936	  0.77033	  0.59897	  0.75070	  0.62749	  0.00524	  1.27330	707.77698	 24.50	
  3.394	 69.283	  1.27639	  0.71838	  0.64264	  0.78325	  0.59778	  0.00546	  1.27046	707.77600	 24.50	
  3.399	 96.763	  1.27209	  0.65943	  0.69584	  0.78880	  0.59065	  0.00538	  1.26617	707.69702	 24.50	
  3.397	124.529	  1.27608	  0.61100	  0.75123	  0.76961	  0.60895	  0.00474	  1.27030	707.64099	 24.50	
  3.388	152.325	  1.27877	  0.57749	  0.79341	  0.72688	  0.64871	  0.00529	  1.27322	707.83197	 24.50	
  5.099	161.165	  1.27182	  0.50132	  0.85757	  0.72171	  0.63521	 -0.00085	  1.27166	707.71997	 24.50	
  5.109	142.013	  1.26986	  0.52808	  0.82454	  0.77616	  0.58422	 -0.00017	  1.26963	707.77002	 24.50	
  5.095	123.033	  1.27205	  0.57127	  0.77830	  0.82027	  0.54901	  0.00109	  1.27063	707.65601	 24.50	
  5.105	104.191	  1.27021	  0.62264	  0.72018	  0.84581	  0.52677	  0.00240	  1.26907	707.75897	 24.50	
  5.093	 85.207	  1.27233	  0.68419	  0.66006	  0.85186	  0.52339	  0.00256	  1.26993	707.61798	 24.50	
  5.104	 66.290	  1.27250	  0.74510	  0.60311	  0.83586	  0.53598	  0.00117	  1.27094	707.76001	 24.50	
  5.094	 47.331	  1.27208	  0.79789	  0.55529	  0.79940	  0.56543	  0.00115	  1.26979	707.73700	 24.50	
  5.089	 28.397	  1.27269	  0.83807	  0.52112	  0.74901	  0.60976	  0.00011	  1.27118	707.79102	 24.50	
  5.096	  9.576	  1.27295	  0.86000	  0.50279	  0.69057	  0.66390	 -0.00238	  1.27286	707.74902	 24.50	
  5.096	 -9.576	  1.26763	  0.85609	  0.50019	  0.62612	  0.72355	 -0.00248	  1.26865	707.72803	 24.50	
  5.089	-28.397	  1.26719	  0.83284	  0.51773	  0.57238	  0.78091	 -0.00488	  1.26764	707.71198	 24.50	
  5.094	-47.331	  1.26514	  0.79102	  0.55061	  0.52598	  0.83018	 -0.00628	  1.26702	707.81799	 24.50	
  5.104	-66.290	  1.26673	  0.73809	  0.59868	  0.49575	  0.86719	 -0.00674	  1.26881	707.68103	 24.50	
  5.093	-85.207	  1.26723	  0.67714	  0.65655	  0.48253	  0.88335	 -0.00648	  1.27073	707.73901	 24.50	
  5.105	-104.191	  1.26706	  0.61634	  0.71826	  0.48646	  0.87877	 -0.00631	  1.26989	707.97302	 24.40	
  5.095	-123.033	  1.26328	  0.56218	  0.77302	  0.50786	  0.84933	 -0.00498	  1.26552	707.81000	 24.40	
  5.109	-142.013	  1.26711	  0.52208	  0.82354	  0.54764	  0.80787	 -0.00309	  1.26817	707.82202	 24.40	
  5.099	-161.165	  1.26453	  0.49572	  0.85359	  0.59851	  0.74956	 -0.00271	  1.26617	707.80200	 24.50	
  5.100	180.000	  1.26833	  0.48926	  0.86677	  0.65862	  0.69211	 -0.00168	  1.26878	707.82898	 24.50	
  6.800	180.000	  1.26185	  0.41814	  0.92652	  0.64805	  0.68252	 -0.00799	  1.27379	707.81000	 24.50	
  6.796	-166.229	  1.25778	  0.42204	  0.91497	  0.58731	  0.73935	 -0.00869	  1.26958	707.86102	 24.50	
  6.808	-152.311	  1.25543	  0.43907	  0.89092	  0.53223	  0.79663	 -0.00981	  1.26886	707.73401	 24.50	
  6.795	-138.383	  1.25537	  0.46992	  0.85357	  0.48510	  0.84969	 -0.01145	  1.26931	707.78003	 24.40	
  6.792	-124.591	  1.25203	  0.50922	  0.80245	  0.44708	  0.88938	 -0.01247	  1.26504	707.72803	 24.40	
  6.787	-110.754	  1.25409	  0.56007	  0.74808	  0.42288	  0.92095	 -0.01350	  1.26862	707.77301	 24.40	
  6.800	-96.985	  1.25565	  0.61721	  0.68950	  0.41037	  0.93829	 -0.01577	  1.27016	707.80200	 24.50	
  6.800	-83.015	  1.25385	  0.67815	  0.62768	  0.40969	  0.93636	 -0.01548	  1.26834	707.88300	 24.40	
  6.787	-69.246	  1.25361	  0.73816	  0.57126	  0.42286	  0.92101	 -0.01520	  1.26790	707.86102	 24.40	
  6.792	-55.409	  1.25219	  0.79389	  0.52125	  0.44768	  0.89024	 -0.01437	  1.26648	707.87500	 24.40	
  6.795	-41.617	  1.25623	  0.84513	  0.48187	  0.48546	  0.85093	 -0.01403	  1.26953	707.77698	 24.50	
  6.808	-27.689	  1.25560	  0.88276	  0.44992	  0.53175	  0.79681	 -0.01193	  1.26869	707.82202	 24.50	
  6.796	-13.771	  1.25763	  0.90819	  0.43285	  0.58683	  0.73992	 -0.01125	  1.26781	707.75702	 24.50	
  6.800	  0.000	  1.25520	  0.91536	  0.42625	  0.64415	  0.67978	 -0.01037	  1.26591	707.83301	 24.50	
  6.796	 13.771	  1.25693	  0.90911	  0.43344	  0.70512	  0.62164	 -0.00922	  1.26663	707.81500	 24.50	
  6.808	 27.689	  1.26507	  0.89208	  0.45451	  0.76843	  0.57185	 -0.00687	  1.27470	707.74500	 24.50	
  6.795	 41.617	  1.25940	  0.85029	  0.48446	  0.81639	  0.52437	 -0.00561	  1.26694	707.71198	 24.50	
  6.792	 55.409	  1.25988	  0.80277	  0.52604	  0.86026	  0.48835	 -0.00493	  1.26753	707.82501	 24.50	
  6.787	 69.246	  1.25945	  0.74645	  0.57648	  0.89090	  0.46436	 -0.00319	  1.26687	707.84399	 24.40	
  6.800	 83.015	  1.25888	  0.68675	  0.63221	  0.90733	  0.45083	 -0.00340	  1.26649	707.84100	 24.50	
  6.800	 96.985	  1.26215	  0.62745	  0.69431	  0.90967	  0.45249	 -0.00451	  1.26971	707.75098	 24.50	
  6.787	110.754	  1.26325	  0.57137	  0.75442	  0.89408	  0.46565	 -0.00454	  1.27102	707.82397	 24.50	
  6.792	124.591	  1.26168	  0.52025	  0.80871	  0.86252	  0.48891	 -0.00550	  1.26939	707.92499	 24.50	
  6.795	138.383	  1.26255	  0.47804	  0.85825	  0.82064	  0.52514	 -0.00573	  1.27166	707.80200	 24.50	
  6.808	152.311	  1.26586	  0.44715	  0.89803	  0.77026	  0.57176	 -0.00620	  1.27496	707.68103	 24.50	
  6.796	166.229	  1.25847	  0.42511	  0.91565	  0.70807	  0.62207	 -0.00656	  1.26833	707.67297	 24.50	
  8.491	168.704	  1.24359	  0.35007	  0.97077	  0.69479	  0.60420	 -0.01543	  1.26938	707.65198	 24.50	
  8.502	157.493	  1.24335	  0.36599	  0.95057	  0.75462	  0.54915	 -0.01372	  1.26785	707.73499	 24.50	
  8.494	146.194	  1.24555	  0.39392	  0.92066	  0.81244	  0.50035	 -0.01320	  1.26926	707.73700	 24.50	
  8.495	135.039	  1.25279	  0.43087	  0.88378	  0.86852	  0.45921	 -0.01442	  1.27587	707.79901	 24.50	
  8.487	123.723	  1.24839	  0.47464	  0.82906	  0.90837	  0.42316	 -0.01244	  1.27152	707.78003	 24.50	
  8.492	112.575	  1.24732	  0.52500	  0.77210	  0.93870	  0.39824	 -0.01162	  1.26906	707.85602	 24.50	
  8.510	101.220	  1.24834	  0.58255	  0.71140	  0.95979	  0.38319	 -0.01156	  1.27037	707.90601	 24.50	
  8.500	 90.000	  1.24697	  0.64274	  0.64892	  0.96507	  0.37774	 -0.01230	  1.26880	707.87701	 24.50	
  8.510	 78.780	  1.24697	  0.70559	  0.58735	  0.95867	  0.38183	 -0.01171	  1.26912	707.71399	 24.50	
  8.492	 67.425	  1.24165	  0.76308	  0.52902	  0.93450	  0.39568	 -0.01172	  1.26418	707.78198	 24.50	
  8.487	 56.277	  1.24676	  0.82329	  0.48064	  0.90669	  0.42231	 -0.01257	  1.26901	707.78497	 24.50	
  8.495	 44.961	  1.24551	  0.87433	  0.43548	  0.86254	  0.45616	 -0.01354	  1.26813	707.72900	 24.50	
  8.494	 33.806	  1.24570	  0.91677	  0.40131	  0.81170	  0.49995	 -0.01443	  1.26875	707.75702	 24.50	
  8.502	 22.507	  1.24763	  0.94996	  0.37516	  0.75529	  0.55109	 -0.01510	  1.27084	707.66602	 24.50	
  8.491	 11.296	  1.24396	  0.96624	  0.35894	  0.69224	  0.60540	 -0.01787	  1.26880	707.85199	 24.50	
  8.500	  0.000	  1.24384	  0.97252	  0.35333	  0.62988	  0.66588	 -0.01962	  1.26978	707.79797	 24.50	
  8.491	-11.296	  1.24790	  0.96755	  0.35973	  0.57115	  0.73020	 -0.01887	  1.27512	707.79303	 24.50	
  8.502	-22.507	  1.24270	  0.94363	  0.37284	  0.51261	  0.78773	 -0.02009	  1.27013	707.60400	 24.50	
  8.494	-33.806	  1.24396	  0.91139	  0.39874	  0.46160	  0.84606	 -0.02206	  1.27273	707.74500	 24.50	
  8.495	-44.961	  1.24739	  0.87140	  0.43424	  0.41879	  0.89928	 -0.02535	  1.27668	707.72803	 24.50	
  8.487	-56.277	  1.24579	  0.81786	  0.47795	  0.38414	  0.93977	 -0.02536	  1.27586	707.72198	 24.50	
  8.492	-67.425	  1.23681	  0.75499	  0.52426	  0.35607	  0.96367	 -0.02466	  1.26658	707.75897	 24.40	
  8.510	-78.780	  1.23786	  0.69365	  0.58167	  0.33987	  0.98495	 -0.02686	  1.26933	707.80200	 24.50	
  8.500	-90.000	  1.23921	  0.63127	  0.64298	  0.33551	  0.99146	 -0.02619	  1.26947	707.90100	 24.50	
  8.510	-101.220	  1.24157	  0.57141	  0.70615	  0.34090	  0.98690	 -0.02487	  1.27205	707.83600	 24.50	
  8.492	-112.575	  1.24030	  0.51418	  0.76673	  0.35719	  0.96536	 -0.02228	  1.27002	707.76801	 24.50	
  8.487	-123.723	  1.24239	  0.46461	  0.82485	  0.38372	  0.93564	 -0.02159	  1.27186	707.80798	 24.50	
  8.495	-135.039	  1.24067	  0.42002	  0.87531	  0.41715	  0.89351	 -0.02044	  1.27006	707.76501	 24.50	
  8.494	-146.194	  1.23997	  0.38609	  0.91665	  0.46080	  0.84264	 -0.01839	  1.26901	707.76703	 24.50	
  8.502	-157.493	  1.23967	  0.36054	  0.94882	  0.51266	  0.78431	 -0.01720	  1.26813	707.82098	 24.50	
  8.491	-168.704	  1.24167	  0.34730	  0.96883	  0.56978	  0.72547	 -0.01652	  1.26927	707.74200	 24.50	
  8.500	180.000	  1.24017	  0.34243	  0.97452	  0.62949	  0.66259	 -0.01727	  1.26669	707.80701	 24.50	
 10.200	180.000	  1.21809	  0.26740	  1.02277	  0.60988	  0.64312	 -0.02611	  1.26495	707.82501	 24.50	
 10.191	-170.497	  1.22074	  0.27120	  1.01834	  0.55005	  0.70652	 -0.02618	  1.26796	707.89398	 24.50	
 10.210	-161.034	  1.22264	  0.28366	  1.00391	  0.49266	  0.76980	 -0.02636	  1.27101	707.77399	 24.50	
 10.194	-151.526	  1.21817	  0.30423	  0.97214	  0.43638	  0.82688	 -0.02660	  1.26663	707.88599	 24.50	
 10.190	-142.105	  1.21782	  0.33246	  0.93511	  0.38836	  0.88264	 -0.02875	  1.26864	707.85303	 24.50	
 10.215	-132.646	  1.22313	  0.37097	  0.89385	  0.34909	  0.93514	 -0.03027	  1.27391	707.78400	 24.50	
 10.203	-123.092	  1.22060	  0.41438	  0.83799	  0.31445	  0.97474	 -0.03036	  1.27202	707.90601	 24.50	
 10.192	-113.678	  1.22146	  0.46552	  0.78040	  0.28842	  1.00766	 -0.03287	  1.27321	707.71100	 24.50	
 10.208	-104.249	  1.21923	  0.52001	  0.71786	  0.26980	  1.02863	 -0.03530	  1.27152	707.77301	 24.50	
 10.210	-94.801	  1.21760	  0.57858	  0.65482	  0.26027	  1.03920	 -0.03664	  1.26996	707.77002	 24.50	
 10.210	-85.199	  1.21917	  0.64427	  0.59226	  0.26136	  1.04041	 -0.03702	  1.27207	707.71997	 24.50	
 10.208	-75.751	  1.21619	  0.70575	  0.53179	  0.26966	  1.02720	 -0.03588	  1.26840	707.82397	 24.50	
 10.192	-66.322	  1.22069	  0.76974	  0.47802	  0.28899	  1.00792	 -0.03589	  1.27221	707.78998	 24.50	
 10.203	-56.908	  1.22002	  0.82883	  0.42726	  0.31463	  0.97551	 -0.03602	  1.27136	707.77399	 24.50	
 10.215	-47.354	  1.22600	  0.88744	  0.38409	  0.34982	  0.93836	 -0.03554	  1.27708	707.66302	 24.50	
 10.190	-37.895	  1.22208	  0.93037	  0.34579	  0.38967	  0.88660	 -0.03325	  1.27208	707.81299	 24.50	
 10.194	-28.474	  1.21993	  0.96681	  0.31635	  0.43640	  0.82988	 -0.03139	  1.26926	707.83197	 24.50	
 10.210	-18.966	  1.22298	  0.99809	  0.29572	  0.49183	  0.77100	 -0.03037	  1.27153	707.75702	 24.50	
 10.191	 -9.503	  1.22549	  1.01684	  0.28412	  0.55028	  0.71136	 -0.02802	  1.27268	707.71198	 24.50	
 10.200	  0.000	  1.22612	  1.02414	  0.27938	  0.61247	  0.64900	 -0.02922	  1.27244	707.74200	 24.50	
 10.191	  9.503	  1.22386	  1.01719	  0.28455	  0.67473	  0.58585	 -0.02825	  1.26867	707.79901	 24.50	
 10.210	 18.966	  1.22403	  1.00094	  0.29635	  0.73656	  0.52843	 -0.02464	  1.26824	707.82898	 24.50	
 10.194	 28.474	  1.22910	  0.97764	  0.32028	  0.80008	  0.47743	 -0.02230	  1.27302	707.76801	 24.50	
 10.190	 37.895	  1.22698	  0.93856	  0.34906	  0.85472	  0.42901	 -0.02198	  1.27002	707.76801	 24.50	
 10.215	 47.354	  1.22925	  0.89510	  0.38687	  0.90649	  0.38822	 -0.02203	  1.27119	707.65198	 24.50	
 10.203	 56.908	  1.22966	  0.84130	  0.43292	  0.94899	  0.35594	 -0.02006	  1.27146	707.72601	 24.50	
 10.192	 66.322	  1.23030	  0.78326	  0.48475	  0.98148	  0.33206	 -0.01911	  1.27207	707.72900	 24.50	
 10.208	 75.751	  1.22997	  0.72173	  0.53998	  1.00398	  0.31368	 -0.02019	  1.27143	707.88800	 24.50	
 10.210	 85.199	  1.23006	  0.65886	  0.60017	  1.01643	  0.30468	 -0.02006	  1.27229	707.63501	 24.50	
 10.210	 94.801	  1.23290	  0.59600	  0.66525	  1.01877	  0.30627	 -0.02150	  1.27443	707.84399	 24.50	
 10.208	104.249	  1.22958	  0.53400	  0.72610	  1.00487	  0.31377	 -0.02019	  1.27209	707.78198	 24.50	
 10.192	113.678	  1.22714	  0.47697	  0.78538	  0.97983	  0.33087	 -0.02044	  1.26838	707.72601	 24.50	
 10.203	123.092	  1.22868	  0.42596	  0.84489	  0.95010	  0.35537	 -0.02196	  1.27078	707.74200	 24.50	
 10.215	132.646	  1.22572	  0.37894	  0.89619	  0.90626	  0.38706	 -0.02216	  1.26730	707.92297	 24.50	
 10.190	142.105	  1.22599	  0.34243	  0.94106	  0.85684	  0.42873	 -0.02268	  1.26876	707.79303	 24.50	
 10.194	151.526	  1.22880	  0.31208	  0.98066	  0.80241	  0.47709	 -0.02223	  1.27256	707.71802	 24.50	
 10.210	161.034	  1.22926	  0.28865	  1.00896	  0.74241	  0.52982	 -0.02348	  1.27384	707.71503	 24.50	
 10.191	170.497	  1.21756	  0.27291	  1.01621	  0.67327	  0.58217	 -0.02445	  1.26232	707.60199	 24.50	
 11.899	171.783	  1.19970	  0.19958	  1.06830	  0.65607	  0.56265	 -0.03485	  1.27039	707.71399	 24.50	
 11.890	163.610	  1.20498	  0.21231	  1.05760	  0.72170	  0.50720	 -0.03432	  1.27524	707.79102	 24.50	
 11.889	155.445	  1.20214	  0.23082	  1.03085	  0.78145	  0.45140	 -0.03177	  1.27060	707.69800	 24.50	
 11.909	147.299	  1.20238	  0.25613	  0.99907	  0.84103	  0.40069	 -0.03210	  1.27048	707.74500	 24.50	
 11.902	139.148	  1.19911	  0.28834	  0.95450	  0.89274	  0.35517	 -0.03229	  1.26667	707.86401	 24.50	
 11.894	130.867	  1.20661	  0.33121	  0.91179	  0.94645	  0.32043	 -0.03280	  1.27334	707.85602	 24.50	
 11.897	122.732	  1.20334	  0.37533	  0.85581	  0.98548	  0.28777	 -0.03148	  1.26881	707.79303	 24.50	
 11.903	114.597	  1.20619	  0.42723	  0.79976	  1.02102	  0.26303	 -0.03038	  1.27278	707.89203	 24.50	
 11.893	106.346	  1.20244	  0.48250	  0.73509	  1.04282	  0.24426	 -0.03005	  1.26770	707.82501	 24.50	
 11.892	 98.155	  1.20498	  0.54332	  0.67297	  1.05910	  0.23407	 -0.03109	  1.27064	707.89502	 24.50	
 11.900	 90.000	  1.20596	  0.60578	  0.61035	  1.06531	  0.22925	 -0.03088	  1.27199	707.75702	 24.50	
 11.892	 81.845	  1.20416	  0.66833	  0.54799	  1.05803	  0.23340	 -0.02894	  1.26945	707.79303	 24.50	
 11.893	 73.654	  1.20636	  0.73294	  0.48918	  1.04426	  0.24428	 -0.02852	  1.27163	707.87701	 24.50	
 11.903	 65.403	  1.20533	  0.79529	  0.43304	  1.01947	  0.26262	 -0.02828	  1.27228	707.87201	 24.50	
 11.897	 57.268	  1.20355	  0.85270	  0.38169	  0.98412	  0.28702	 -0.02919	  1.26985	707.88300	 24.50	
 11.894	 49.133	  1.20497	  0.90801	  0.33739	  0.94320	  0.32042	 -0.03070	  1.27183	707.86401	 24.50	
 11.902	 40.852	  1.19884	  0.95194	  0.29558	  0.89036	  0.35639	 -0.03128	  1.26599	707.80701	 24.60	
 11.909	 32.701	  1.20136	  0.99499	  0.26361	  0.83806	  0.40089	 -0.03124	  1.26884	707.90100	 24.60	
 11.889	 24.555	  1.20009	  1.02649	  0.23924	  0.77789	  0.45151	 -0.03241	  1.26870	707.74597	 24.50	
 11.890	 16.390	  1.19990	  1.04976	  0.22052	  0.71517	  0.50604	 -0.03489	  1.26802	707.85498	 24.60	
 11.899	  8.217	  1.19933	  1.06396	  0.20936	  0.65332	  0.56380	 -0.03734	  1.26883	707.96997	 24.60	
 11.900	  0.000	  1.19833	  1.06787	  0.20485	  0.58855	  0.62556	 -0.03856	  1.26974	707.78198	 24.60	
 11.899	 -8.217	  1.20031	  1.06355	  0.20945	  0.52798	  0.68949	 -0.03761	  1.27151	707.85199	 24.60	
 11.890	-16.390	  1.19530	  1.04330	  0.21963	  0.46767	  0.74839	 -0.03702	  1.26693	707.95898	 24.60	
 11.889	-24.555	  1.19564	  1.01869	  0.23723	  0.41233	  0.81035	 -0.03807	  1.26835	707.75702	 24.60	
 11.909	-32.701	  1.19692	  0.98694	  0.26169	  0.36262	  0.86954	 -0.04094	  1.27158	707.76001	 24.60	
 11.902	-40.852	  1.19465	  0.94316	  0.29324	  0.31730	  0.92091	 -0.04380	  1.26980	707.78198	 24.60	
 11.894	-49.133	  1.19027	  0.89067	  0.33110	  0.27737	  0.96642	 -0.04653	  1.26618	707.85602	 24.60	
 11.897	-57.268	  1.19285	  0.83808	  0.37597	  0.24522	  1.00946	 -0.04602	  1.26958	707.70599	 24.60	
 11.903	-65.403	  1.19316	  0.77824	  0.42592	  0.21887	  1.04305	 -0.04503	  1.27034	707.90302	 24.60	
 11.893	-73.654	  1.19500	  0.71686	  0.48257	  0.20219	  1.06750	 -0.04626	  1.27307	707.85303	 24.60	
 11.892	-81.845	  1.19360	  0.65222	  0.54053	  0.19100	  1.07936	 -0.04574	  1.27053	707.85303	 24.60	
 11.900	-90.000	  1.19350	  0.58834	  0.60187	  0.18723	  1.08462	 -0.04691	  1.27122	707.85498	 24.60	
 11.892	-98.155	  1.19306	  0.52705	  0.66441	  0.19114	  1.07913	 -0.04571	  1.27101	707.84900	 24.60	
 11.893	-106.346	  1.19742	  0.46949	  0.72973	  0.20233	  1.06845	 -0.04485	  1.27528	707.78699	 24.60	
 11.903	-114.597	  1.19650	  0.41258	  0.79107	  0.21976	  1.04347	 -0.04359	  1.27440	707.76001	 24.60	
 11.897	-122.732	  1.19230	  0.36224	  0.84692	  0.24592	  1.00681	 -0.04167	  1.26907	707.71503	 24.60	
 11.894	-130.867	  1.19854	  0.31960	  0.90515	  0.27977	  0.97097	 -0.03994	  1.27521	707.79401	 24.60	
 11.902	-139.148	  1.19450	  0.28063	  0.95132	  0.31950	  0.91904	 -0.03934	  1.26955	707.77301	 24.60	
 11.909	-147.299	  1.19544	  0.24894	  0.99287	  0.36349	  0.86701	 -0.03792	  1.27066	707.71802	 24.60	
 11.889	-155.445	  1.19557	  0.22502	  1.02506	  0.41437	  0.80887	 -0.03566	  1.26996	707.64398	 24.60	
 11.890	-163.610	  1.20017	  0.20874	  1.05333	  0.47202	  0.75019	 -0.03605	  1.27291	707.79901	 24.60	
 11.899	-171.783	  1.19649	  0.19764	  1.06494	  0.52911	  0.68548	 -0.03653	  1.26812	707.84900	 24.60	
 11.900	180.000	  1.19457	  0.19429	  1.06781	  0.58948	  0.62194	 -0.03597	  1.26511	707.73401	 24.60	
 13.600	180.000	  1.16997	  0.12254	  1.11255	  0.56790	  0.59952	 -0.04614	  1.26964	707.93597	 24.60	
 13.608	-172.853	  1.17136	  0.12390	  1.11047	  0.50713	  0.66186	 -0.04562	  1.27334	707.82098	 24.60	
 13.611	-165.583	  1.17138	  0.13246	  1.09726	  0.44720	  0.72516	 -0.04696	  1.27366	707.74298	 24.60	
 13.601	-158.353	  1.16454	  0.14706	  1.06929	  0.38849	  0.78398	 -0.04588	  1.26682	707.69702	 24.60	
 13.609	-151.210	  1.16964	  0.16847	  1.04463	  0.33860	  0.84660	 -0.04626	  1.27418	707.84900	 24.60	
 13.611	-143.999	  1.16445	  0.19472	  1.00370	  0.28978	  0.89953	 -0.04821	  1.26921	707.83002	 24.60	
 13.601	-136.825	  1.16681	  0.22811	  0.96191	  0.24778	  0.95337	 -0.04930	  1.27322	707.82397	 24.60	
 13.596	-129.640	  1.16695	  0.26691	  0.91106	  0.21031	  1.00062	 -0.04995	  1.27344	707.91498	 24.60	
