FileType=PCF
NHL=14
Date=08/31/17	11:10:07
Facility=APL
Serial=16328-11
Customer=NASA
NP=6
Mach=0.150000
Calibration=1:1
CalPts=490
TstPts=95
PortNumbering=AP Standard
Units=Torr C m/s kg/m^3 deg mm 
Theta[deg]	Phi[deg]	P1[Torr]	P2[Torr]	P3[Torr]	P4[Torr]	P5[Torr]	P6[Torr]	Pt[Torr]	Ps[Abs,Torr]	Ts[C]	
  0.000	  0.000	 11.10870	  5.75691	  6.01157	  5.69375	  5.99332	  0.07253	 11.10352	706.67798	 23.10	
  1.691	128.401	 11.10732	  5.41470	  6.35202	  6.12890	  5.53542	  0.06948	 11.10592	706.66498	 23.10	
  1.692	 77.194	 11.11226	  5.89115	  5.90008	  6.23896	  5.44115	  0.07191	 11.11282	706.79102	 23.10	
  1.699	 26.182	 11.13367	  6.27594	  5.53348	  5.94829	  5.74919	  0.06615	 11.12979	706.69202	 23.10	
  1.699	-26.182	 11.11114	  6.24185	  5.51091	  5.44085	  6.22845	  0.05788	 11.10863	706.69800	 23.10	
  1.692	-77.194	 11.09668	  5.84163	  5.85804	  5.14862	  6.50354	  0.05826	 11.09893	706.64697	 23.10	
  1.691	-128.401	 11.11993	  5.39849	  6.32674	  5.26119	  6.40593	  0.06242	 11.12073	706.55701	 23.10	
  1.700	180.000	 11.11264	  5.19254	  6.55064	  5.68792	  5.96862	  0.06802	 11.11230	706.59802	 23.10	
  3.400	180.000	 11.10674	  4.61520	  7.07411	  5.63448	  5.91974	  0.03913	 11.12221	706.47699	 23.10	
  3.388	-152.325	 11.08179	  4.71804	  6.91137	  5.11936	  6.42376	  0.03303	 11.10390	706.42902	 23.10	
  3.397	-124.529	 11.08404	  5.02944	  6.56159	  4.74041	  6.84215	  0.03476	 11.11322	706.53198	 23.10	
  3.399	-96.763	 11.09290	  5.52302	  6.04137	  4.55475	  7.05169	  0.01769	 11.12225	706.56000	 23.10	
  3.394	-69.283	 11.08969	  6.05606	  5.52653	  4.61884	  6.98874	  0.01091	 11.11412	706.45697	 23.10	
  3.400	-41.398	 11.11314	  6.53073	  5.13005	  4.91348	  6.69446	  0.01436	 11.13575	706.49298	 23.10	
  3.401	-14.021	 11.10554	  6.80110	  4.92205	  5.36151	  6.22706	  0.02946	 11.12396	706.56403	 23.10	
  3.401	 14.021	 11.10940	  6.80823	  4.94834	  5.91862	  5.66992	  0.02868	 11.11983	706.51300	 23.10	
  3.400	 41.398	 11.10392	  6.57705	  5.19396	  6.39330	  5.20977	  0.04303	 11.10962	706.60602	 23.10	
  3.394	 69.283	 11.11218	  6.14840	  5.60824	  6.71452	  4.92933	  0.04719	 11.11759	706.73297	 23.10	
  3.399	 96.763	 11.12085	  5.62216	  6.12244	  6.78843	  4.86734	  0.04885	 11.12780	706.58899	 23.10	
  3.397	124.529	 11.11211	  5.11217	  6.61213	  6.59972	  5.01649	  0.05039	 11.11641	706.53302	 23.10	
  3.388	152.325	 11.10342	  4.76039	  6.94300	  6.17655	  5.39602	  0.03866	 11.11682	706.62201	 23.10	
  5.099	161.165	 11.06789	  4.08447	  7.52063	  6.12056	  5.27977	  0.00454	 11.12774	706.58099	 23.10	
  5.109	142.013	 11.08608	  4.35071	  7.26855	  6.65421	  4.79879	  0.00316	 11.13752	706.71503	 23.10	
  5.095	123.033	 11.06782	  4.74509	  6.84344	  7.03303	  4.45941	  0.00127	 11.11732	706.63898	 23.10	
  5.105	104.191	 11.07375	  5.25598	  6.33078	  7.27253	  4.26652	 -0.00162	 11.11427	706.58398	 23.10	
  5.093	 85.207	 11.05821	  5.79058	  5.79617	  7.30273	  4.23429	  0.00018	 11.09881	706.58801	 23.10	
  5.104	 66.290	 11.07681	  6.36299	  5.27773	  7.16940	  4.37183	 -0.00070	 11.11922	706.72601	 23.10	
  5.094	 47.331	 11.07423	  6.84993	  4.82978	  6.82691	  4.67294	 -0.00343	 11.12033	706.68701	 23.10	
  5.089	 28.397	 11.05640	  7.17583	  4.50147	  6.36948	  5.07090	 -0.00733	 11.10953	706.72900	 23.10	
  5.096	  9.576	 11.06466	  7.36095	  4.31539	  5.83475	  5.58636	 -0.01693	 11.12359	706.78003	 23.10	
  5.096	 -9.576	 11.05447	  7.35337	  4.27343	  5.24385	  6.16742	 -0.02240	 11.13124	706.70099	 23.10	
  5.089	-28.397	 11.03404	  7.12832	  4.41088	  4.73288	  6.69016	 -0.02905	 11.11582	706.70203	 23.10	
  5.094	-47.331	 11.02099	  6.75107	  4.69921	  4.31119	  7.13528	 -0.04297	 11.10877	706.63702	 23.10	
  5.104	-66.290	 11.03354	  6.25882	  5.13678	  4.02028	  7.47340	 -0.04775	 11.12687	706.68500	 23.10	
  5.093	-85.207	 11.02178	  5.69638	  5.64858	  3.88497	  7.60682	 -0.04556	 11.11501	706.61401	 23.10	
  5.105	-104.191	 11.02620	  5.13322	  6.22275	  3.93052	  7.55187	 -0.03729	 11.12234	706.64203	 23.10	
  5.095	-123.033	 11.02078	  4.64184	  6.74375	  4.14930	  7.29589	 -0.02410	 11.11814	706.52899	 23.10	
  5.109	-142.013	 11.02967	  4.26208	  7.18929	  4.51035	  6.89532	 -0.01693	 11.12172	706.60498	 23.10	
  5.099	-161.165	 11.05014	  4.04421	  7.49069	  5.00791	  6.37772	 -0.00811	 11.12736	706.54303	 23.10	
  5.100	180.000	 11.04810	  3.96643	  7.60440	  5.55001	  5.81363	 -0.00425	 11.11833	706.53198	 23.10	
  6.800	180.000	 10.96325	  3.30994	  8.10750	  5.44576	  5.70452	 -0.07392	 11.12754	706.62903	 23.10	
  6.796	-166.229	 10.93466	  3.34579	  8.00711	  4.89364	  6.24694	 -0.07020	 11.11067	706.59998	 23.10	
  6.808	-152.311	 10.92679	  3.50414	  7.78927	  4.38962	  6.78033	 -0.07818	 11.12152	706.48999	 23.10	
  6.795	-138.383	 10.91689	  3.77672	  7.44729	  3.94366	  7.26660	 -0.09031	 11.11744	706.69501	 23.10	
  6.792	-124.591	 10.91724	  4.15649	  7.01105	  3.59726	  7.66306	 -0.09046	 11.12107	705.00800	 23.10	
  6.787	-110.754	 10.91552	  4.62691	  6.49996	  3.35439	  7.94562	 -0.10605	 11.13045	706.57397	 23.10	
  6.800	-96.985	 10.90016	  5.13625	  5.94994	  3.21975	  8.09024	 -0.12608	 11.11133	706.53998	 23.10	
  6.800	-83.015	 10.90948	  5.70536	  5.39333	  3.23361	  8.09497	 -0.12989	 11.11654	706.57397	 23.10	
  6.787	-69.246	 10.90745	  6.25229	  4.88609	  3.34575	  7.96535	 -0.13177	 11.10871	706.69501	 23.10	
  6.792	-55.409	 10.91954	  6.77329	  4.43401	  3.57740	  7.71246	 -0.13055	 11.11693	706.63397	 23.10	
  6.795	-41.617	 10.92670	  7.23166	  4.06289	  3.92258	  7.32991	 -0.12104	 11.12070	706.60303	 23.10	
  6.808	-27.689	 10.93988	  7.58273	  3.79730	  4.36190	  6.85901	 -0.10499	 11.12326	706.60797	 23.10	
  6.796	-13.771	 10.94712	  7.81093	  3.64993	  4.86164	  6.32905	 -0.09359	 11.12029	706.67297	 23.10	
  6.800	  0.000	 10.97858	  7.91561	  3.62073	  5.42262	  5.78848	 -0.09174	 11.13991	706.63098	 23.10	
  6.796	 13.771	 10.96788	  7.84773	  3.69713	  5.97925	  5.22302	 -0.08093	 11.12036	706.53601	 23.10	
  6.808	 27.689	 10.98975	  7.66723	  3.89381	  6.52067	  4.72995	 -0.07034	 11.12299	706.47900	 23.10	
  6.795	 41.617	 10.99527	  7.33345	  4.20000	  7.01314	  4.29109	 -0.06925	 11.12749	706.56702	 23.10	
  6.792	 55.409	 11.00016	  6.90569	  4.59358	  7.40401	  3.94972	 -0.05723	 11.12203	706.67297	 23.10	
  6.787	 69.246	 10.99259	  6.39966	  5.04933	  7.67160	  3.71150	 -0.05909	 11.10538	706.64203	 23.10	
  6.800	 83.015	 11.00353	  5.85667	  5.57056	  7.83205	  3.58088	 -0.07060	 11.12097	706.54303	 23.10	
  6.800	 96.985	 11.01329	  5.30283	  6.11648	  7.84127	  3.57685	 -0.06877	 11.12818	706.53302	 23.10	
  6.787	110.754	 11.00838	  4.77405	  6.64240	  7.69623	  3.69065	 -0.06515	 11.12134	706.55200	 23.10	
  6.792	124.591	 10.98290	  4.28365	  7.12120	  7.41253	  3.90239	 -0.07023	 11.10848	704.84399	 23.10	
  6.795	138.383	 10.99854	  3.90434	  7.54418	  7.03965	  4.24150	 -0.06320	 11.12972	706.58301	 23.10	
  6.808	152.311	 10.99769	  3.59628	  7.86535	  6.56382	  4.66301	 -0.05675	 11.14134	706.63098	 23.10	
  6.796	166.229	 10.96316	  3.39483	  8.03889	  6.01333	  5.14698	 -0.06482	 11.11746	706.67401	 23.10	
  8.491	168.704	 10.83708	  2.70129	  8.52432	  5.89435	  4.99639	 -0.14573	 11.12027	706.63098	 23.10	
  8.502	157.493	 10.85610	  2.86966	  8.37371	  6.46200	  4.46869	 -0.13684	 11.12942	706.54901	 23.10	
  8.494	146.194	 10.84586	  3.11563	  8.09687	  6.96237	  4.01167	 -0.13962	 11.10365	706.65002	 23.10	
  8.495	135.039	 10.88084	  3.46046	  7.76301	  7.45666	  3.61190	 -0.15179	 11.13508	706.62903	 23.10	
  8.487	123.723	 10.88626	  3.88575	  7.31873	  7.83487	  3.29706	 -0.16037	 11.13378	706.56897	 23.10	
  8.492	112.575	 10.87147	  4.36166	  6.81042	  8.10303	  3.06406	 -0.15874	 11.11238	706.57397	 23.10	
  8.510	101.220	 10.89237	  4.90056	  6.28356	  8.30001	  2.91810	 -0.16026	 11.13134	706.61102	 23.10	
  8.500	 90.000	 10.90290	  5.46791	  5.73568	  8.35226	  2.89103	 -0.16321	 11.13497	706.65100	 23.10	
  8.510	 78.780	 10.89314	  6.03496	  5.18066	  8.28196	  2.94732	 -0.15533	 11.13430	706.61603	 23.10	
  8.492	 67.425	 10.88720	  6.58544	  4.66583	  8.09134	  3.10634	 -0.13819	 11.12340	706.63702	 23.10	
  8.487	 56.277	 10.87472	  7.09602	  4.19442	  7.79868	  3.33659	 -0.13489	 11.11958	706.62799	 23.10	
  8.495	 44.961	 10.88310	  7.56199	  3.78385	  7.41721	  3.67959	 -0.14635	 11.13447	706.63098	 23.10	
  8.494	 33.806	 10.87960	  7.92596	  3.46029	  6.95624	  4.08908	 -0.15268	 11.14006	706.65002	 23.10	
  8.502	 22.507	 10.84566	  8.18336	  3.18511	  6.41143	  4.55856	 -0.15876	 11.11895	706.54700	 23.10	
  8.491	 11.296	 10.83410	  8.34066	  3.02901	  5.84799	  5.08402	 -0.17374	 11.11514	706.58002	 23.10	
  8.500	  0.000	 10.83677	  8.40355	  2.93988	  5.27969	  5.64792	 -0.18641	 11.13641	706.63397	 23.10	
  8.491	-11.296	 10.81397	  8.31461	  2.95952	  4.71037	  6.21477	 -0.17713	 11.12334	706.64697	 23.10	
  8.502	-22.507	 10.80562	  8.11842	  3.08683	  4.18464	  6.76752	 -0.17943	 11.12576	706.56897	 23.10	
  8.494	-33.806	 10.78294	  7.80985	  3.29354	  3.69236	  7.28060	 -0.19871	 11.11303	706.72302	 23.10	
  8.495	-44.961	 10.77814	  7.42269	  3.59342	  3.28610	  7.73403	 -0.21325	 11.12118	706.64502	 23.10	
  8.487	-56.277	 10.76624	  6.93937	  3.98753	  2.95885	  8.10138	 -0.21992	 11.11171	706.59198	 23.10	
  8.492	-67.425	 10.76280	  6.41826	  4.44410	  2.72517	  8.36514	 -0.22875	 11.11665	706.63098	 23.10	
  8.510	-78.780	 10.76225	  5.84665	  4.96873	  2.57959	  8.53457	 -0.23328	 11.12344	706.62903	 23.10	
  8.500	-90.000	 10.75504	  5.27104	  5.51233	  2.52098	  8.58895	 -0.22387	 11.11679	706.59497	 23.10	
  8.510	-101.220	 10.75159	  4.70476	  6.07942	  2.57717	  8.51675	 -0.21131	 11.11575	706.02301	 23.10	
  8.492	-112.575	 10.75028	  4.17205	  6.64296	  2.73410	  8.32514	 -0.18377	 11.10663	706.80798	 23.10	
  8.487	-123.723	 10.76642	  3.71879	  7.16534	  2.98025	  8.04868	 -0.16915	 11.12519	706.72998	 23.10	
  8.495	-135.039	 10.75682	  3.31342	  7.61633	  3.30011	  7.66511	 -0.16656	 11.11161	705.18500	 23.10	
  8.494	-146.194	 10.76696	  2.99769	  8.01073	  3.71999	  7.19823	 -0.16616	 11.11317	706.76398	 23.10	
  8.502	-157.493	 10.79280	  2.77679	  8.31718	  4.21406	  6.67600	 -0.15747	 11.12541	706.59497	 23.10	
  8.491	-168.704	 10.80400	  2.66227	  8.49098	  4.74355	  6.12389	 -0.15417	 11.11931	706.59998	 23.10	
  8.500	180.000	 10.81021	  2.62445	  8.56259	  5.30576	  5.55014	 -0.15692	 11.11226	705.27698	 23.10	
 10.200	180.000	 10.65065	  1.95886	  8.99812	  5.16042	  5.38806	 -0.24660	 11.12474	706.70502	 23.10	
 10.191	-170.497	 10.62162	  1.96389	  8.93532	  4.58448	  5.95316	 -0.24980	 11.11663	706.83301	 23.10	
 10.210	-161.034	 10.61409	  2.06401	  8.79045	  4.04295	  6.52173	 -0.24542	 11.13088	706.59998	 23.10	
 10.194	-151.526	 10.59279	  2.25501	  8.52015	  3.52094	  7.07559	 -0.25303	 11.12158	706.70502	 23.10	
 10.190	-142.105	 10.57991	  2.51624	  8.18639	  3.06489	  7.57717	 -0.25424	 11.12615	706.79901	 23.10	
 10.215	-132.646	 10.58201	  2.85699	  7.77278	  2.67299	  8.03342	 -0.25578	 11.13454	706.80798	 23.10	
 10.203	-123.092	 10.57387	  3.26169	  7.29463	  2.34550	  8.41145	 -0.25661	 11.13239	706.83301	 23.10	
 10.192	-113.678	 10.56492	  3.72921	  6.75708	  2.09830	  8.70361	 -0.26998	 11.12373	706.73297	 23.10	
 10.208	-104.249	 10.54379	  4.22859	  6.19481	  1.91543	  8.90149	 -0.30266	 11.11182	706.70502	 23.10	
 10.210	-94.801	 10.55340	  4.78412	  5.63169	  1.82568	  9.02378	 -0.32519	 11.12369	705.05798	 23.10	
 10.210	-85.199	 10.57612	  5.39188	  5.05366	  1.82920	  9.04783	 -0.33764	 11.14305	706.42200	 23.10	
 10.208	-75.751	 10.54815	  5.95242	  4.49871	  1.90275	  8.93229	 -0.33443	 11.10876	706.69501	 23.10	
 10.192	-66.322	 10.56109	  6.52541	  3.99366	  2.06706	  8.74816	 -0.32836	 11.11390	706.70502	 23.10	
 10.203	-56.908	 10.56853	  7.05917	  3.53265	  2.30921	  8.47502	 -0.31710	 11.11633	706.59198	 23.10	
 10.215	-47.354	 10.58347	  7.56134	  3.13007	  2.63464	  8.11124	 -0.30718	 11.12075	706.71503	 23.10	
 10.190	-37.895	 10.59555	  7.99175	  2.80155	  3.02256	  7.67087	 -0.28859	 11.12144	706.63898	 23.10	
 10.194	-28.474	 10.61209	  8.34079	  2.54974	  3.47317	  7.18275	 -0.27165	 11.13069	706.61902	 23.10	
 10.210	-18.966	 10.61612	  8.60303	  2.36717	  3.97627	  6.63493	 -0.26399	 11.11892	706.69000	 23.10	
 10.191	 -9.503	 10.63365	  8.77013	  2.27549	  4.52937	  6.06812	 -0.26421	 11.12021	706.61902	 23.10	
 10.200	  0.000	 10.64573	  8.84660	  2.25586	  5.10132	  5.48928	 -0.27475	 11.12192	706.69897	 23.10	
 10.191	  9.503	 10.65525	  8.81515	  2.31636	  5.68982	  4.91227	 -0.27394	 11.12290	706.62201	 23.10	
 10.210	 18.966	 10.66700	  8.67516	  2.46573	  6.26209	  4.37696	 -0.26083	 11.11700	706.65997	 23.10	
 10.194	 28.474	 10.68942	  8.45832	  2.69107	  6.82349	  3.87521	 -0.24570	 11.12765	706.65100	 23.10	
 10.190	 37.895	 10.68095	  8.12739	  2.97379	  7.32525	  3.41451	 -0.24208	 11.10923	706.67603	 23.10	
 10.215	 47.354	 10.70884	  7.74090	  3.33673	  7.80380	  3.01728	 -0.23430	 11.13444	704.95398	 23.10	
 10.203	 56.908	 10.72464	  7.26957	  3.76624	  8.18303	  2.71199	 -0.21440	 11.13587	706.54401	 23.10	
 10.192	 66.322	 10.71422	  6.73789	  4.23594	  8.46476	  2.46869	 -0.21621	 11.11889	706.65698	 23.10	
 10.208	 75.751	 10.72143	  6.18730	  4.74410	  8.68224	  2.29025	 -0.24094	 11.12726	706.69800	 23.10	
 10.210	 85.199	 10.71415	  5.61130	  5.27641	  8.78508	  2.19358	 -0.26151	 11.11677	706.53998	 23.10	
 10.210	 94.801	 10.73887	  5.02632	  5.86714	  8.81216	  2.19027	 -0.26989	 11.14606	706.60797	 23.10	
 10.208	104.249	 10.72744	  4.47076	  6.40974	  8.70653	  2.26582	 -0.26678	 11.13027	706.59698	 23.10	
 10.192	113.678	 10.70933	  3.93286	  6.94832	  8.48960	  2.42577	 -0.26058	 11.11736	706.63702	 23.10	
 10.203	123.092	 10.71289	  3.45700	  7.45243	  8.20872	  2.65716	 -0.25741	 11.12419	706.58398	 23.10	
 10.215	132.646	 10.70818	  3.02034	  7.91284	  7.83686	  2.95650	 -0.24896	 11.12686	706.44202	 23.10	
 10.190	142.105	 10.70583	  2.66332	  8.30266	  7.38274	  3.34425	 -0.23260	 11.12552	706.81702	 23.10	
 10.194	151.526	 10.68458	  2.37147	  8.60171	  6.87030	  3.78175	 -0.22010	 11.11613	706.53497	 23.10	
 10.210	161.034	 10.66071	  2.13927	  8.82305	  6.31247	  4.27503	 -0.22073	 11.10500	706.61102	 23.10	
 10.191	170.497	 10.66906	  2.01115	  8.96552	  5.75709	  4.81527	 -0.23917	 11.12863	706.52899	 23.10	
 11.899	171.783	 10.45527	  1.31884	  9.38049	  5.57009	  4.61355	 -0.33218	 11.13114	706.59698	 23.10	
 11.890	163.610	 10.44943	  1.43636	  9.24596	  6.13367	  4.07121	 -0.31645	 11.11446	706.73798	 23.10	
 11.889	155.445	 10.47614	  1.62824	  9.06369	  6.70223	  3.56911	 -0.30675	 11.11816	706.66199	 23.10	
 11.909	147.299	 10.48627	  1.86681	  8.80275	  7.24923	  3.09052	 -0.31089	 11.13019	706.67297	 23.10	
 11.902	139.148	 10.48364	  2.19808	  8.43649	  7.72791	  2.67563	 -0.31983	 11.11151	706.54901	 23.10	
 11.894	130.867	 10.49378	  2.58688	  8.01938	  8.16164	  2.32910	 -0.33204	 11.11174	706.68701	 23.10	
 11.897	122.732	 10.49850	  3.01109	  7.55967	  8.54099	  2.02433	 -0.35053	 11.11825	706.77502	 23.10	
 11.903	114.597	 10.48862	  3.48860	  7.04366	  8.82460	  1.78816	 -0.35956	 11.10223	706.66699	 23.10	
 11.893	106.346	 10.50495	  4.02475	  6.50170	  9.05117	  1.62387	 -0.36263	 11.11745	705.60101	 23.10	
 11.892	 98.155	 10.52408	  4.58362	  5.95434	  9.19278	  1.53033	 -0.36821	 11.13515	705.08600	 23.10	
 11.900	 90.000	 10.50719	  5.14010	  5.38752	  9.21345	  1.50678	 -0.36584	 11.11215	706.57501	 23.10	
 11.892	 81.845	 10.51918	  5.72289	  4.84063	  9.16894	  1.55737	 -0.34819	 11.12097	705.72498	 23.10	
 11.893	 73.654	 10.52001	  6.31193	  4.30305	  9.03763	  1.65811	 -0.32527	 11.13160	704.95001	 23.10	
 11.903	 65.403	 10.50889	  6.86795	  3.78623	  8.80525	  1.84475	 -0.29683	 11.12421	705.54999	 23.10	
 11.897	 57.268	 10.50683	  7.39421	  3.33352	  8.49854	  2.09145	 -0.29222	 11.12054	705.65997	 23.10	
 11.894	 49.133	 10.50849	  7.87414	  2.91783	  8.12576	  2.40797	 -0.30123	 11.12888	706.71002	 23.10	
 11.902	 40.852	 10.48904	  8.29498	  2.53531	  7.67421	  2.77530	 -0.31403	 11.12101	706.64697	 23.10	
 11.909	 32.701	 10.47027	  8.63736	  2.22209	  7.17653	  3.19702	 -0.32726	 11.11502	706.77698	 23.10	
 11.889	 24.555	 10.45431	  8.91298	  1.96324	  6.63203	  3.68010	 -0.33639	 11.10883	706.83099	 23.10	
 11.890	 16.390	 10.46203	  9.12052	  1.77897	  6.08258	  4.19485	 -0.34819	 11.12705	706.69202	 23.10	
 11.899	  8.217	 10.43936	  9.22727	  1.65134	  5.50430	  4.72765	 -0.35267	 11.11896	706.74701	 23.10	
 11.900	  0.000	 10.44974	  9.28177	  1.58471	  4.92385	  5.31402	 -0.35136	 11.14930	706.80200	 23.20	
 11.899	 -8.217	 10.42730	  9.20472	  1.59302	  4.34349	  5.89470	 -0.34304	 11.13838	706.44299	 23.20	
 11.890	-16.390	 10.39961	  9.05725	  1.65388	  3.78450	  6.45197	 -0.33749	 11.12189	706.78601	 23.20	
 11.889	-24.555	 10.37917	  8.81294	  1.80777	  3.26702	  6.99911	 -0.34145	 11.11233	705.77502	 23.10	
 11.909	-32.701	 10.37307	  8.51010	  2.01691	  2.78134	  7.54131	 -0.35309	 11.12456	706.66998	 23.20	
 11.902	-40.852	 10.37126	  8.13474	  2.30397	  2.37436	  8.01149	 -0.36838	 11.13164	706.83301	 23.20	
 11.894	-49.133	 10.36079	  7.67456	  2.65672	  1.99740	  8.44444	 -0.38063	 11.12705	706.71002	 23.10	
 11.897	-57.268	 10.33233	  7.16828	  3.05119	  1.68101	  8.79074	 -0.39559	 11.11174	706.78302	 23.20	
 11.903	-65.403	 10.33837	  6.62677	  3.52282	  1.43961	  9.08683	 -0.40827	 11.12501	706.82001	 23.20	
 11.893	-73.654	 10.34694	  6.05994	  4.03766	  1.28453	  9.29116	 -0.42045	 11.13756	706.67401	 23.20	
 11.892	-81.845	 10.32313	  5.47842	  4.56060	  1.18581	  9.38659	 -0.41459	 11.11447	706.04498	 23.20	
 11.900	-90.000	 10.32661	  4.88675	  5.13006	  1.15192	  9.42744	 -0.41446	 11.11912	706.46301	 23.20	
 11.892	-98.155	 10.33983	  4.32935	  5.71275	  1.19191	  9.38785	 -0.40521	 11.13523	705.12598	 23.20	
 11.893	-106.346	 10.34648	  3.78805	  6.29045	  1.29668	  9.25739	 -0.38366	 11.14300	705.12201	 23.20	
 11.903	-114.597	 10.31415	  3.24878	  6.84106	  1.46266	  9.01864	 -0.35517	 11.11438	706.66699	 23.20	
 11.897	-122.732	 10.31911	  2.79486	  7.37215	  1.71638	  8.71102	 -0.33938	 11.11232	706.77100	 23.20	
 11.894	-130.867	 10.35058	  2.39308	  7.87487	  2.02970	  8.36283	 -0.33260	 11.13494	705.05798	 23.20	
 11.902	-139.148	 10.35195	  2.03058	  8.31235	  2.41408	  7.91129	 -0.33417	 11.13415	706.84399	 23.20	
 11.909	-147.299	 10.35657	  1.74875	  8.67478	  2.82988	  7.42782	 -0.34488	 11.12241	706.68402	 23.20	
 11.889	-155.445	 10.37004	  1.53404	  8.96750	  3.31613	  6.89686	 -0.34608	 11.12114	706.76300	 23.20	
 11.890	-163.610	 10.37638	  1.37192	  9.19104	  3.84204	  6.32025	 -0.34708	 11.10952	705.12201	 23.20	
 11.899	-171.783	 10.40730	  1.27925	  9.34589	  4.39508	  5.76530	 -0.34791	 11.12981	705.10797	 23.20	
 11.900	180.000	 10.43226	  1.26315	  9.40884	  4.97823	  5.18261	 -0.34205	 11.13530	706.69202	 23.20	
 13.600	180.000	 10.15307	  0.59285	  9.74155	  4.75072	  4.94414	 -0.43310	 11.10444	705.21198	 23.20	
 13.608	-172.853	 10.14179	  0.59522	  9.71053	  4.18121	  5.52322	 -0.44253	 11.12345	705.22302	 23.20	
 13.611	-165.583	 10.11413	  0.65909	  9.58867	  3.61226	  6.10175	 -0.44622	 11.11750	705.16803	 23.20	
 13.601	-158.353	 10.09716	  0.80462	  9.37457	  3.08257	  6.66964	 -0.44654	 11.11215	705.16199	 23.20	
 13.609	-151.210	 10.09488	  0.98653	  9.12609	  2.59770	  7.21875	 -0.44263	 11.13133	705.19098	 23.20	
 13.611	-143.999	 10.08232	  1.22744	  8.79741	  2.14231	  7.73939	 -0.43552	 11.13889	706.21198	 23.20	
 13.601	-136.825	 10.08591	  1.52993	  8.41665	  1.74375	  8.22208	 -0.41999	 11.15048	705.39600	 23.20	
 13.596	-129.640	 10.05074	  1.88924	  7.93468	  1.37630	  8.63163	 -0.41158	 11.12343	706.19501	 23.20	
