FileType=PCF
NHL=14
Date=08/31/17	12:25:18
Facility=APL
Serial=16328-11
Customer=NASA
NP=6
Mach=0.050000
Calibration=1:1
CalPts=490
TstPts=95
PortNumbering=AP Standard
Units=Torr C m/s kg/m^3 deg mm 
Theta[deg]	Phi[deg]	P1[Torr]	P2[Torr]	P3[Torr]	P4[Torr]	P5[Torr]	P6[Torr]	Pt[Torr]	Ps[Abs,Torr]	Ts[C]	
  0.000	  0.000	  1.30285	  0.69839	  0.71880	  0.69566	  0.71512	  0.00561	  1.29528	706.04498	 24.00	
  1.691	128.401	  1.30333	  0.65980	  0.75361	  0.72552	  0.67816	  0.00579	  1.29632	706.04797	 24.00	
  1.692	 77.194	  1.30401	  0.70398	  0.71164	  0.73570	  0.67129	  0.00594	  1.29690	706.13501	 24.00	
  1.699	 26.182	  1.30001	  0.74119	  0.67022	  0.70402	  0.69587	  0.00426	  1.29325	706.15503	 24.00	
  1.699	-26.182	  1.30347	  0.74165	  0.66709	  0.65748	  0.74477	  0.00424	  1.29591	706.18298	 24.00	
  1.692	-77.194	  1.30073	  0.69857	  0.70011	  0.62544	  0.77679	  0.00300	  1.29493	706.03802	 24.00	
  1.691	-128.401	  1.30040	  0.64989	  0.74977	  0.63475	  0.76351	  0.00412	  1.29454	706.07898	 24.00	
  1.700	180.000	  1.30275	  0.63291	  0.77702	  0.68150	  0.71630	  0.00452	  1.29630	706.04901	 24.00	
  3.400	180.000	  1.30152	  0.56452	  0.83953	  0.67548	  0.71149	  0.00166	  1.29722	706.01501	 24.00	
  3.388	-152.325	  1.30018	  0.57396	  0.82294	  0.61746	  0.77054	  0.00084	  1.29656	706.14398	 24.00	
  3.397	-124.529	  1.29498	  0.60721	  0.77759	  0.57280	  0.81508	  0.00036	  1.29172	706.06897	 24.00	
  3.399	-96.763	  1.29454	  0.66106	  0.71969	  0.55178	  0.83916	 -0.00037	  1.29145	706.07098	 24.00	
  3.394	-69.283	  1.29372	  0.72071	  0.66115	  0.55861	  0.83239	 -0.00036	  1.29166	706.09698	 24.00	
  3.400	-41.398	  1.29682	  0.77560	  0.61672	  0.59096	  0.79946	 -0.00001	  1.29313	706.06000	 24.00	
  3.401	-14.021	  1.29779	  0.80610	  0.59553	  0.64043	  0.74645	  0.00119	  1.29361	706.00098	 24.00	
  3.401	 14.021	  1.30043	  0.80951	  0.59909	  0.70173	  0.68670	  0.00195	  1.29532	706.00598	 24.00	
  3.400	 41.398	  1.30139	  0.78201	  0.62635	  0.75860	  0.63498	  0.00267	  1.29556	706.06000	 24.00	
  3.394	 69.283	  1.30019	  0.72989	  0.67326	  0.79384	  0.60414	  0.00238	  1.29475	706.05603	 24.00	
  3.399	 96.763	  1.29627	  0.66760	  0.72870	  0.79873	  0.59591	  0.00235	  1.29018	706.01703	 24.00	
  3.397	124.529	  1.29795	  0.61685	  0.78332	  0.77883	  0.61372	  0.00273	  1.29260	706.10101	 24.00	
  3.388	152.325	  1.30162	  0.58139	  0.82587	  0.73468	  0.65569	  0.00202	  1.29731	706.00897	 24.00	
  5.099	161.165	  1.29184	  0.50262	  0.88812	  0.72816	  0.64033	 -0.00265	  1.29327	706.08698	 24.00	
  5.109	142.013	  1.29334	  0.53149	  0.85832	  0.78731	  0.58768	 -0.00257	  1.29299	705.93597	 24.00	
  5.095	123.033	  1.29375	  0.57650	  0.81118	  0.83130	  0.55079	 -0.00293	  1.29229	706.03101	 24.00	
  5.105	104.191	  1.29387	  0.63105	  0.75314	  0.85822	  0.52855	 -0.00229	  1.29202	706.00299	 24.00	
  5.093	 85.207	  1.29247	  0.69233	  0.69205	  0.86211	  0.52500	 -0.00284	  1.29088	705.95300	 24.00	
  5.104	 66.290	  1.29356	  0.75567	  0.63309	  0.84582	  0.53870	 -0.00294	  1.29268	706.13898	 24.00	
  5.094	 47.331	  1.29389	  0.81055	  0.58396	  0.80649	  0.57232	 -0.00223	  1.29261	706.00702	 24.00	
  5.089	 28.397	  1.29270	  0.85082	  0.54562	  0.75552	  0.61696	 -0.00359	  1.29178	705.98297	 24.00	
  5.096	  9.576	  1.29192	  0.87110	  0.52564	  0.69193	  0.67668	 -0.00425	  1.29220	706.03998	 24.00	
  5.096	 -9.576	  1.29251	  0.86964	  0.52400	  0.62964	  0.74062	 -0.00568	  1.29385	706.02100	 24.00	
  5.089	-28.397	  1.29149	  0.84498	  0.53877	  0.57374	  0.79992	 -0.00604	  1.29423	706.12701	 24.00	
  5.094	-47.331	  1.28769	  0.80095	  0.57046	  0.52424	  0.85098	 -0.00729	  1.29105	705.96698	 24.00	
  5.104	-66.290	  1.28775	  0.74564	  0.61805	  0.49091	  0.88916	 -0.00643	  1.29262	706.12097	 24.00	
  5.093	-85.207	  1.28634	  0.68136	  0.67606	  0.47722	  0.90340	 -0.00665	  1.29112	705.94501	 24.00	
  5.105	-104.191	  1.28680	  0.61816	  0.74083	  0.48232	  0.89740	 -0.00749	  1.29227	706.11102	 24.00	
  5.095	-123.033	  1.28341	  0.56146	  0.79835	  0.50598	  0.86550	 -0.00528	  1.28766	706.03198	 24.00	
  5.109	-142.013	  1.29018	  0.52158	  0.85266	  0.54883	  0.82368	 -0.00473	  1.29449	706.09601	 24.00	
  5.099	-161.165	  1.29341	  0.49683	  0.88762	  0.60416	  0.76603	 -0.00410	  1.29672	706.04602	 24.00	
  5.100	180.000	  1.29191	  0.49047	  0.89775	  0.66400	  0.70306	 -0.00360	  1.29413	706.03400	 24.00	
  6.800	180.000	  1.27907	  0.41334	  0.95448	  0.65132	  0.68840	 -0.01056	  1.29205	706.07098	 24.00	
  6.796	-166.229	  1.28024	  0.41928	  0.94691	  0.59203	  0.75149	 -0.00981	  1.29473	706.19800	 24.00	
  6.808	-152.311	  1.27352	  0.43368	  0.91737	  0.53101	  0.80982	 -0.01124	  1.28986	706.09601	 24.00	
  6.795	-138.383	  1.27756	  0.46634	  0.88157	  0.48292	  0.86774	 -0.01234	  1.29456	706.13300	 24.00	
  6.792	-124.591	  1.27812	  0.51014	  0.83204	  0.44528	  0.91319	 -0.01211	  1.29541	706.04602	 24.00	
  6.787	-110.754	  1.27539	  0.56070	  0.77313	  0.41720	  0.94313	 -0.01368	  1.29251	706.00299	 24.00	
  6.800	-96.985	  1.27533	  0.61920	  0.71099	  0.40364	  0.96023	 -0.01560	  1.29282	705.99500	 24.00	
  6.800	-83.015	  1.27619	  0.68357	  0.64962	  0.40330	  0.96220	 -0.01503	  1.29443	706.03998	 24.00	
  6.787	-69.246	  1.27516	  0.74466	  0.59109	  0.41594	  0.94606	 -0.01512	  1.29192	705.92798	 24.00	
  6.792	-55.409	  1.27646	  0.80502	  0.53919	  0.44171	  0.91804	 -0.01484	  1.29300	705.97198	 24.00	
  6.795	-41.617	  1.27819	  0.85645	  0.49835	  0.48166	  0.87509	 -0.01433	  1.29386	706.14899	 24.00	
  6.808	-27.689	  1.27982	  0.89779	  0.46814	  0.53096	  0.82133	 -0.01324	  1.29406	706.13202	 24.00	
  6.796	-13.771	  1.28019	  0.92157	  0.45359	  0.58575	  0.76237	 -0.01149	  1.29237	706.07098	 24.00	
  6.800	  0.000	  1.28026	  0.93156	  0.44839	  0.64644	  0.69922	 -0.01175	  1.29199	706.07898	 24.00	
  6.796	 13.771	  1.28614	  0.92863	  0.45922	  0.71224	  0.63993	 -0.01021	  1.29620	706.13300	 24.00	
  6.808	 27.689	  1.28524	  0.90559	  0.47993	  0.77208	  0.58211	 -0.00918	  1.29355	706.16302	 24.00	
  6.795	 41.617	  1.28683	  0.86855	  0.51324	  0.82815	  0.53344	 -0.00896	  1.29425	706.07098	 24.00	
  6.792	 55.409	  1.28789	  0.82072	  0.55692	  0.87546	  0.49323	 -0.00938	  1.29529	706.04498	 24.00	
  6.787	 69.246	  1.28626	  0.76199	  0.61015	  0.90388	  0.46775	 -0.00897	  1.29308	706.08801	 24.00	
  6.800	 83.015	  1.28881	  0.70142	  0.66879	  0.92436	  0.45261	 -0.00983	  1.29541	706.02899	 24.00	
  6.800	 96.985	  1.28767	  0.63642	  0.73001	  0.92459	  0.45180	 -0.00978	  1.29421	706.01801	 24.00	
  6.787	110.754	  1.28583	  0.57731	  0.78891	  0.90618	  0.46517	 -0.00952	  1.29308	705.98602	 24.00	
  6.792	124.591	  1.28405	  0.52405	  0.84371	  0.87470	  0.49013	 -0.00911	  1.29154	706.06799	 24.00	
  6.795	138.383	  1.28277	  0.48025	  0.88996	  0.82986	  0.52670	 -0.00848	  1.29086	706.07703	 24.00	
  6.808	152.311	  1.28019	  0.44427	  0.92558	  0.77484	  0.57168	 -0.00945	  1.29026	706.01099	 24.00	
  6.796	166.229	  1.28185	  0.42409	  0.94893	  0.71717	  0.62870	 -0.00934	  1.29321	706.00897	 24.00	
  8.491	168.704	  1.26922	  0.34668	  1.00526	  0.70638	  0.61001	 -0.01810	  1.29646	706.01398	 24.00	
  8.502	157.493	  1.26924	  0.36438	  0.98680	  0.76814	  0.55212	 -0.01725	  1.29426	706.02600	 24.00	
  8.494	146.194	  1.26993	  0.39416	  0.95510	  0.82724	  0.49890	 -0.01666	  1.29360	706.11603	 24.00	
  8.495	135.039	  1.27181	  0.43141	  0.91572	  0.87979	  0.45535	 -0.01881	  1.29391	706.06299	 24.00	
  8.487	123.723	  1.27624	  0.47900	  0.86827	  0.92591	  0.42129	 -0.01791	  1.29721	706.00299	 24.00	
  8.492	112.575	  1.27328	  0.53274	  0.80878	  0.95569	  0.39522	 -0.01749	  1.29384	706.04901	 24.00	
  8.510	101.220	  1.27616	  0.59486	  0.74794	  0.97692	  0.38073	 -0.01696	  1.29613	706.03400	 24.00	
  8.500	 90.000	  1.27373	  0.65724	  0.68481	  0.98112	  0.37560	 -0.01793	  1.29279	706.03802	 24.00	
  8.510	 78.780	  1.27633	  0.72147	  0.62461	  0.97688	  0.38187	 -0.01758	  1.29662	706.10797	 24.00	
  8.492	 67.425	  1.27704	  0.78612	  0.56460	  0.95566	  0.39996	 -0.01717	  1.29710	706.15002	 24.00	
  8.487	 56.277	  1.27777	  0.84424	  0.51366	  0.92400	  0.42676	 -0.01781	  1.29796	706.00897	 24.00	
  8.495	 44.961	  1.27684	  0.89784	  0.46667	  0.87866	  0.46493	 -0.01785	  1.29829	706.04797	 24.10	
  8.494	 33.806	  1.27092	  0.93596	  0.42662	  0.82195	  0.50946	 -0.01743	  1.29411	706.10101	 24.10	
  8.502	 22.507	  1.27163	  0.96737	  0.40030	  0.76375	  0.56457	 -0.01711	  1.29504	705.96698	 24.10	
  8.491	 11.296	  1.27318	  0.98693	  0.38318	  0.70221	  0.62442	 -0.01882	  1.29873	705.95599	 24.10	
  8.500	  0.000	  1.26951	  0.99204	  0.37354	  0.63413	  0.68747	 -0.01979	  1.29642	706.11798	 24.10	
  8.491	-11.296	  1.26498	  0.97957	  0.37476	  0.56977	  0.74955	 -0.01997	  1.29326	706.07898	 24.00	
  8.502	-22.507	  1.26635	  0.96015	  0.38876	  0.51100	  0.81351	 -0.01976	  1.29669	706.27002	 24.00	
  8.494	-33.806	  1.26403	  0.92346	  0.41410	  0.45729	  0.87097	 -0.02161	  1.29481	706.02600	 24.00	
  8.495	-44.961	  1.26055	  0.87854	  0.44461	  0.40839	  0.92257	 -0.02434	  1.29339	706.11603	 24.00	
  8.487	-56.277	  1.26476	  0.82683	  0.49190	  0.37397	  0.96738	 -0.02432	  1.29844	706.04797	 24.00	
  8.492	-67.425	  1.26117	  0.76480	  0.54223	  0.34878	  0.99446	 -0.02442	  1.29505	706.04602	 24.00	
  8.510	-78.780	  1.26037	  0.69970	  0.60148	  0.32918	  1.01570	 -0.02433	  1.29595	705.98401	 24.00	
  8.500	-90.000	  1.25957	  0.63504	  0.66322	  0.32601	  1.01854	 -0.02486	  1.29478	706.01801	 24.00	
  8.510	-101.220	  1.25923	  0.57207	  0.72761	  0.33066	  1.01189	 -0.02447	  1.29492	705.92200	 24.00	
  8.492	-112.575	  1.25507	  0.51091	  0.78779	  0.34786	  0.98671	 -0.02235	  1.28995	706.03101	 24.00	
  8.487	-123.723	  1.25889	  0.46120	  0.84782	  0.37645	  0.95577	 -0.02101	  1.29289	705.95300	 24.00	
  8.495	-135.039	  1.26180	  0.41532	  0.90420	  0.41282	  0.91603	 -0.02096	  1.29597	706.01801	 24.00	
  8.494	-146.194	  1.26449	  0.38139	  0.94790	  0.46038	  0.86326	 -0.01956	  1.29831	706.00098	 24.00	
  8.502	-157.493	  1.26358	  0.35552	  0.98049	  0.51428	  0.80138	 -0.01851	  1.29576	705.97803	 24.00	
  8.491	-168.704	  1.26472	  0.34093	  1.00180	  0.57363	  0.73968	 -0.01897	  1.29492	706.01801	 24.00	
  8.500	180.000	  1.26942	  0.33718	  1.01258	  0.64102	  0.67493	 -0.01968	  1.29730	706.01099	 24.00	
 10.200	180.000	  1.24623	  0.25972	  1.05938	  0.62199	  0.65265	 -0.02899	  1.29529	706.05200	 24.00	
 10.191	-170.497	  1.24279	  0.26081	  1.05217	  0.55418	  0.71862	 -0.02894	  1.29413	706.07397	 24.00	
 10.210	-161.034	  1.24251	  0.27287	  1.03558	  0.49456	  0.78328	 -0.02870	  1.29568	706.16699	 24.00	
 10.194	-151.526	  1.24076	  0.29479	  1.00509	  0.43683	  0.84552	 -0.02814	  1.29541	706.04797	 24.00	
 10.190	-142.105	  1.23973	  0.32523	  0.96588	  0.38575	  0.90318	 -0.02937	  1.29567	706.05701	 24.00	
 10.215	-132.646	  1.23539	  0.36128	  0.91751	  0.34027	  0.95236	 -0.02988	  1.29300	706.07703	 24.00	
 10.203	-123.092	  1.23773	  0.40768	  0.86456	  0.30481	  0.99862	 -0.03081	  1.29542	706.02899	 24.00	
 10.192	-113.678	  1.23909	  0.46042	  0.80596	  0.27780	  1.03282	 -0.03244	  1.29703	706.02301	 24.00	
 10.208	-104.249	  1.23849	  0.51962	  0.74171	  0.25757	  1.05734	 -0.03438	  1.29759	706.03802	 24.00	
 10.210	-94.801	  1.23724	  0.58117	  0.67509	  0.24640	  1.06938	 -0.03538	  1.29685	705.99298	 24.00	
 10.210	-85.199	  1.23850	  0.64866	  0.61027	  0.24749	  1.07105	 -0.03541	  1.29688	706.08698	 24.00	
 10.208	-75.751	  1.23995	  0.71484	  0.54838	  0.25681	  1.06137	 -0.03454	  1.29758	706.11902	 24.00	
 10.192	-66.322	  1.23947	  0.77801	  0.49019	  0.27468	  1.03915	 -0.03467	  1.29600	706.01703	 24.00	
 10.203	-56.908	  1.23837	  0.83646	  0.43901	  0.30207	  1.00560	 -0.03534	  1.29315	706.11298	 24.00	
 10.215	-47.354	  1.23910	  0.89419	  0.39237	  0.33744	  0.96422	 -0.03394	  1.29373	705.98297	 24.00	
 10.190	-37.895	  1.24234	  0.94569	  0.35588	  0.38100	  0.91707	 -0.03266	  1.29658	706.03400	 24.00	
 10.194	-28.474	  1.24052	  0.98190	  0.32766	  0.42975	  0.85962	 -0.03049	  1.29242	706.07300	 24.00	
 10.210	-18.966	  1.24509	  1.01596	  0.30728	  0.49034	  0.79782	 -0.02898	  1.29682	705.98700	 24.00	
 10.191	 -9.503	  1.24768	  1.03415	  0.29894	  0.54969	  0.73621	 -0.02933	  1.29615	706.03400	 24.00	
 10.200	  0.000	  1.24806	  1.04154	  0.29569	  0.61367	  0.67033	 -0.02917	  1.29439	706.09601	 24.00	
 10.191	  9.503	  1.24869	  1.03669	  0.30551	  0.67953	  0.60553	 -0.02790	  1.29399	706.04901	 24.00	
 10.210	 18.966	  1.25087	  1.02371	  0.31846	  0.74589	  0.54382	 -0.02670	  1.29535	706.02100	 24.00	
 10.194	 28.474	  1.25349	  0.99647	  0.34467	  0.80830	  0.48890	 -0.02624	  1.29490	706.11102	 24.00	
 10.190	 37.895	  1.25491	  0.96006	  0.37802	  0.86685	  0.43820	 -0.02678	  1.29545	706.04199	 24.00	
 10.215	 47.354	  1.25310	  0.91368	  0.41531	  0.91848	  0.39124	 -0.02655	  1.29365	705.99500	 24.00	
 10.203	 56.908	  1.25837	  0.86211	  0.46574	  0.96406	  0.35779	 -0.02627	  1.29716	706.14398	 24.00	
 10.192	 66.322	  1.25658	  0.80088	  0.51778	  0.99710	  0.32890	 -0.02646	  1.29481	706.10498	 24.00	
 10.208	 75.751	  1.25855	  0.73982	  0.57449	  1.02113	  0.31055	 -0.02777	  1.29605	706.14099	 24.00	
 10.210	 85.199	  1.25697	  0.67336	  0.63524	  1.03214	  0.30100	 -0.02943	  1.29422	706.06897	 24.00	
 10.210	 94.801	  1.25396	  0.60534	  0.69876	  1.03113	  0.29824	 -0.02894	  1.29208	706.10101	 24.00	
 10.208	104.249	  1.25583	  0.54332	  0.76241	  1.02246	  0.30755	 -0.02768	  1.29311	706.06500	 24.00	
 10.192	113.678	  1.25461	  0.48382	  0.82264	  0.99909	  0.32373	 -0.02809	  1.29324	706.11298	 24.00	
 10.203	123.092	  1.25157	  0.42790	  0.87915	  0.96500	  0.34843	 -0.02854	  1.29153	706.01801	 24.00	
 10.215	132.646	  1.25289	  0.38112	  0.93155	  0.92493	  0.38255	 -0.02862	  1.29370	706.07397	 24.00	
 10.190	142.105	  1.25085	  0.33953	  0.97651	  0.87145	  0.42570	 -0.02739	  1.29289	706.01703	 24.00	
 10.194	151.526	  1.25066	  0.30869	  1.01190	  0.81440	  0.47544	 -0.02640	  1.29352	706.04797	 24.00	
 10.210	161.034	  1.24949	  0.28261	  1.03911	  0.75280	  0.52999	 -0.02729	  1.29430	706.02600	 24.00	
 10.191	170.497	  1.24807	  0.26737	  1.05441	  0.68854	  0.58996	 -0.02853	  1.29468	706.01801	 24.00	
 11.899	171.783	  1.22330	  0.19059	  1.09995	  0.66731	  0.56779	 -0.03838	  1.29460	705.93500	 24.00	
 11.890	163.610	  1.22660	  0.20321	  1.08779	  0.73234	  0.50815	 -0.03760	  1.29588	706.08502	 24.00	
 11.889	155.445	  1.22892	  0.22455	  1.06525	  0.79774	  0.45078	 -0.03624	  1.29495	706.08002	 24.00	
 11.909	147.299	  1.22785	  0.25175	  1.03292	  0.85779	  0.39680	 -0.03676	  1.29407	706.04602	 24.00	
 11.902	139.148	  1.23127	  0.28780	  0.99548	  0.91469	  0.35182	 -0.03785	  1.29588	706.11298	 24.00	
 11.894	130.867	  1.23259	  0.33126	  0.94863	  0.96510	  0.31198	 -0.03863	  1.29633	706.09302	 24.00	
 11.897	122.732	  1.23079	  0.37932	  0.89321	  1.00500	  0.27828	 -0.03932	  1.29355	706.09698	 24.00	
 11.903	114.597	  1.23263	  0.43278	  0.83666	  1.04072	  0.25170	 -0.03935	  1.29601	706.07898	 24.00	
 11.893	106.346	  1.23218	  0.49269	  0.77272	  1.06544	  0.23272	 -0.03879	  1.29510	706.17200	 24.00	
 11.892	 98.155	  1.22905	  0.55353	  0.70849	  1.07546	  0.22272	 -0.03882	  1.29118	706.13898	 24.00	
 11.900	 90.000	  1.23604	  0.62131	  0.64877	  1.08588	  0.22075	 -0.04028	  1.29747	706.02399	 24.00	
 11.892	 81.845	  1.23299	  0.68532	  0.58478	  1.07771	  0.22481	 -0.03920	  1.29474	705.97998	 24.00	
 11.893	 73.654	  1.23379	  0.75103	  0.52449	  1.06368	  0.23653	 -0.03828	  1.29525	706.15802	 24.00	
 11.903	 65.403	  1.23259	  0.81566	  0.46608	  1.03664	  0.25710	 -0.03615	  1.29458	706.25299	 24.00	
 11.897	 57.268	  1.23222	  0.87434	  0.41447	  1.00150	  0.28586	 -0.03570	  1.29486	706.19000	 24.00	
 11.894	 49.133	  1.22828	  0.92786	  0.36638	  0.95550	  0.32051	 -0.03722	  1.29106	706.07703	 24.00	
 11.902	 40.852	  1.23069	  0.97924	  0.32484	  0.90573	  0.36433	 -0.03693	  1.29506	706.12097	 24.00	
 11.909	 32.701	  1.22875	  1.01810	  0.28911	  0.85197	  0.41022	 -0.03587	  1.29457	706.06897	 24.00	
 11.889	 24.555	  1.22641	  1.04826	  0.26255	  0.78920	  0.46381	 -0.03575	  1.29265	706.00702	 24.00	
 11.890	 16.390	  1.22450	  1.07114	  0.24010	  0.72407	  0.52293	 -0.03676	  1.29252	706.05603	 24.00	
 11.899	  8.217	  1.22311	  1.08455	  0.22641	  0.65768	  0.58471	 -0.03838	  1.29304	706.06500	 24.00	
 11.900	  0.000	  1.22383	  1.09029	  0.21888	  0.59337	  0.65014	 -0.03886	  1.29657	706.07898	 24.00	
 11.899	 -8.217	  1.21906	  1.07869	  0.22128	  0.52675	  0.71394	 -0.03759	  1.29231	706.09601	 24.00	
 11.890	-16.390	  1.22177	  1.06622	  0.23019	  0.46683	  0.78126	 -0.03757	  1.29760	706.09601	 24.00	
 11.889	-24.555	  1.22219	  1.04041	  0.24731	  0.40839	  0.84590	 -0.03800	  1.29888	706.14398	 24.00	
 11.909	-32.701	  1.21906	  1.00347	  0.26988	  0.35487	  0.90366	 -0.03953	  1.29815	706.23901	 24.00	
 11.902	-40.852	  1.21543	  0.95830	  0.30065	  0.30710	  0.95577	 -0.04166	  1.29497	706.18103	 24.00	
 11.894	-49.133	  1.21262	  0.90545	  0.34012	  0.26408	  1.00304	 -0.04408	  1.29399	706.12701	 24.00	
 11.897	-57.268	  1.21130	  0.84775	  0.38523	  0.22990	  1.04308	 -0.04434	  1.29424	706.00098	 24.00	
 11.903	-65.403	  1.21075	  0.78684	  0.43580	  0.20355	  1.07555	 -0.04354	  1.29446	706.09302	 24.00	
 11.893	-73.654	  1.21032	  0.72248	  0.49416	  0.18406	  1.09833	 -0.04481	  1.29424	705.98401	 24.00	
 11.892	-81.845	  1.21326	  0.65836	  0.55631	  0.17495	  1.11342	 -0.04590	  1.29710	706.14697	 24.00	
 11.900	-90.000	  1.21118	  0.59057	  0.62020	  0.17089	  1.11576	 -0.04694	  1.29602	706.21802	 24.00	
 11.892	-98.155	  1.20569	  0.52470	  0.68285	  0.17377	  1.10663	 -0.04558	  1.29130	706.11102	 24.00	
 11.893	-106.346	  1.21214	  0.46598	  0.75095	  0.18630	  1.09635	 -0.04413	  1.29833	706.05701	 24.00	
 11.903	-114.597	  1.20943	  0.40643	  0.81433	  0.20524	  1.06873	 -0.04180	  1.29545	706.17499	 24.00	
 11.897	-122.732	  1.20849	  0.35417	  0.87342	  0.23225	  1.03381	 -0.04150	  1.29438	706.03400	 24.00	
 11.894	-130.867	  1.21158	  0.31053	  0.92947	  0.27023	  0.99222	 -0.03932	  1.29665	705.96198	 24.00	
 11.902	-139.148	  1.21223	  0.27014	  0.97981	  0.31136	  0.94242	 -0.03904	  1.29532	706.17999	 24.00	
 11.909	-147.299	  1.21243	  0.23620	  1.02213	  0.35976	  0.88525	 -0.03827	  1.29513	706.15002	 24.00	
 11.889	-155.445	  1.21609	  0.21260	  1.05749	  0.41402	  0.82778	 -0.03840	  1.29672	706.06500	 24.00	
 11.890	-163.610	  1.21915	  0.19469	  1.08493	  0.47250	  0.76444	 -0.03783	  1.29888	706.08197	 24.00	
 11.899	-171.783	  1.21766	  0.18434	  1.09793	  0.53435	  0.69767	 -0.03857	  1.29383	706.08502	 24.00	
 11.900	180.000	  1.22173	  0.18235	  1.10625	  0.59936	  0.63311	 -0.03958	  1.29595	706.11798	 24.00	
 13.600	180.000	  1.19023	  0.10610	  1.14478	  0.57572	  0.60640	 -0.04969	  1.29446	706.12097	 24.00	
 13.608	-172.853	  1.18867	  0.10716	  1.14041	  0.51174	  0.67097	 -0.05151	  1.29605	706.08502	 24.10	
 13.611	-165.583	  1.18615	  0.11564	  1.12505	  0.44936	  0.73601	 -0.04916	  1.29489	705.96198	 24.10	
 13.601	-158.353	  1.18471	  0.13209	  1.10255	  0.39037	  0.80155	 -0.04921	  1.29529	706.10101	 24.10	
 13.609	-151.210	  1.18013	  0.15195	  1.07090	  0.33278	  0.86028	 -0.04832	  1.29229	706.10101	 24.10	
 13.611	-143.999	  1.17826	  0.18028	  1.03191	  0.28210	  0.91889	 -0.04837	  1.29250	706.13898	 24.10	
 13.601	-136.825	  1.17707	  0.21450	  0.98781	  0.23767	  0.97239	 -0.04923	  1.29252	706.00299	 24.10	
 13.596	-129.640	  1.17688	  0.25499	  0.93650	  0.19758	  1.02177	 -0.04805	  1.29342	706.12701	 24.10	
