FileType=PCF
NHL=14
Date=08/31/17	10:32:51
Facility=APL
Serial=16328-11
Customer=NASA
NP=6
Mach=0.200000
Calibration=1:1
CalPts=490
TstPts=95
PortNumbering=AP Standard
Units=Torr C m/s kg/m^3 deg mm 
Theta[deg]	Phi[deg]	P1[Torr]	P2[Torr]	P3[Torr]	P4[Torr]	P5[Torr]	P6[Torr]	Pt[Torr]	Ps[Abs,Torr]	Ts[C]	
  0.000	  0.000	 19.84334	 10.24423	 10.69508	 10.18466	 10.63026	  0.16073	 19.83969	706.78497	 23.20	
  1.691	128.401	 19.82742	  9.64637	 11.30984	 10.95498	  9.80771	  0.15291	 19.81985	706.73297	 23.20	
  1.692	 77.194	 19.83657	 10.46678	 10.49290	 11.12645	  9.66106	  0.14905	 19.82758	706.72998	 23.20	
  1.699	 26.182	 19.83252	 11.14913	  9.79775	 10.60087	 10.16377	  0.13628	 19.82538	706.79999	 23.20	
  1.699	-26.182	 19.82591	 11.11182	  9.76960	  9.71675	 11.03651	  0.12955	 19.82655	706.82501	 23.20	
  1.692	-77.194	 19.82763	 10.40322	 10.41543	  9.19902	 11.56399	  0.12998	 19.82869	706.82300	 23.20	
  1.691	-128.401	 19.82257	  9.57759	 11.26363	  9.37752	 11.35940	  0.13104	 19.81807	706.79102	 23.20	
  1.700	180.000	 19.84647	  9.23866	 11.69037	 10.15691	 10.59364	  0.14356	 19.83969	706.87299	 23.20	
  3.400	180.000	 19.80635	  8.18884	 12.64339	 10.06366	 10.50166	  0.10288	 19.83385	706.76398	 23.20	
  3.388	-152.325	 19.78099	  8.40629	 12.36171	  9.16485	 11.38664	  0.09742	 19.81772	706.79102	 23.20	
  3.397	-124.529	 19.77478	  8.96581	 11.68645	  8.46293	 12.15500	  0.08436	 19.82159	706.76099	 23.20	
  3.399	-96.763	 19.79817	  9.84378	 10.76791	  8.13491	 12.52793	  0.05981	 19.84512	706.82001	 23.20	
  3.394	-69.283	 19.78305	 10.78885	  9.80843	  8.23050	 12.42671	  0.07340	 19.82792	706.92700	 23.20	
  3.400	-41.398	 19.83354	 11.65112	  9.09357	  8.77926	 11.90377	  0.07741	 19.87233	706.85101	 23.20	
  3.401	-14.021	 19.77784	 12.11235	  8.68124	  9.57772	 11.01217	  0.08871	 19.80188	706.74597	 23.20	
  3.401	 14.021	 19.79117	 12.14751	  8.72499	 10.55521	 10.05201	  0.09890	 19.80282	706.84399	 23.20	
  3.400	 41.398	 19.82587	 11.74776	  9.18034	 11.44610	  9.23134	  0.10462	 19.83818	706.70099	 23.20	
  3.394	 69.283	 19.83940	 10.94044	  9.97624	 12.01434	  8.70691	  0.11437	 19.84221	706.72302	 23.20	
  3.399	 96.763	 19.81540	  9.99395	 10.87838	 12.14290	  8.55686	  0.11830	 19.81651	706.67401	 23.20	
  3.397	124.529	 19.83601	  9.10199	 11.79425	 11.78963	  8.89840	  0.11591	 19.84108	706.79401	 23.20	
  3.388	152.325	 19.80663	  8.46063	 12.41952	 11.00677	  9.58786	  0.11833	 19.81602	706.79498	 23.20	
  5.099	161.165	 19.71416	  7.26740	 13.38735	 10.94028	  9.36186	  0.02639	 19.81467	706.76898	 23.20	
  5.109	142.013	 19.72619	  7.75648	 12.92972	 11.84833	  8.51391	  0.02147	 19.81261	706.91803	 23.20	
  5.095	123.033	 19.75065	  8.47645	 12.21682	 12.58438	  7.94065	  0.02503	 19.83784	706.88702	 23.20	
  5.105	104.191	 19.75014	  9.36481	 11.29521	 13.01542	  7.59868	  0.02909	 19.82240	706.73297	 23.20	
  5.093	 85.207	 19.76056	 10.34161	 10.32574	 13.09283	  7.56439	  0.03662	 19.82725	706.83398	 23.20	
  5.104	 66.290	 19.74737	 11.33801	  9.36118	 12.80926	  7.77589	  0.05062	 19.81296	706.65900	 23.20	
  5.094	 47.331	 19.76224	 12.21203	  8.57179	 12.22363	  8.25618	  0.03830	 19.84076	706.87903	 23.20	
  5.089	 28.397	 19.75730	 12.83190	  7.97417	 11.41798	  8.99357	  0.02542	 19.84304	706.82501	 23.20	
  5.096	  9.576	 19.73124	 13.13211	  7.61572	 10.45750	  9.91657	 -0.00142	 19.83451	706.91803	 23.20	
  5.096	 -9.576	 19.67372	 13.08630	  7.55259	  9.41123	 10.88936	 -0.00850	 19.79428	706.77802	 23.20	
  5.089	-28.397	 19.68402	 12.73421	  7.80287	  8.52917	 11.84874	 -0.01214	 19.81878	706.92102	 23.20	
  5.094	-47.331	 19.67260	 12.05640	  8.34603	  7.74232	 12.67494	 -0.03983	 19.81895	706.90198	 23.20	
  5.104	-66.290	 19.69437	 11.16011	  9.13461	  7.29122	 13.26381	 -0.05021	 19.84867	706.80603	 23.20	
  5.093	-85.207	 19.65556	 10.14860	 10.02805	  7.04233	 13.49859	 -0.04779	 19.81989	706.95099	 23.20	
  5.105	-104.191	 19.66644	  9.17563	 11.06616	  7.09261	 13.40056	 -0.03362	 19.83246	706.83899	 23.20	
  5.095	-123.033	 19.67599	  8.32015	 12.04926	  7.46385	 12.94438	 -0.01692	 19.83958	706.75500	 23.20	
  5.109	-142.013	 19.67186	  7.63357	 12.82504	  8.09800	 12.22968	 -0.00309	 19.82964	706.78802	 23.20	
  5.099	-161.165	 19.68816	  7.17950	 13.36227	  8.97761	 11.28687	  0.00760	 19.83172	706.78497	 23.20	
  5.100	180.000	 19.67907	  7.03310	 13.52918	  9.91561	 10.33438	  0.01416	 19.80028	706.87500	 23.20	
  6.800	180.000	 19.54245	  5.87536	 14.45237	  9.72722	 10.12416	 -0.10960	 19.83701	706.83899	 23.20	
  6.796	-166.229	 19.49614	  5.92291	 14.28562	  8.77053	 11.04688	 -0.10634	 19.81814	706.81299	 23.20	
  6.808	-152.311	 19.47629	  6.16192	 13.91548	  7.83984	 11.99956	 -0.11264	 19.82118	706.73798	 23.20	
  6.795	-138.383	 19.46548	  6.65346	 13.28840	  7.10417	 12.88468	 -0.12792	 19.82502	706.77197	 23.20	
  6.792	-124.591	 19.46850	  7.38914	 12.49176	  6.49791	 13.61588	 -0.13738	 19.83561	706.73700	 23.20	
  6.787	-110.754	 19.46581	  8.22849	 11.56901	  6.08251	 14.12607	 -0.16015	 19.83518	706.81897	 23.20	
  6.800	-96.985	 19.45377	  9.15778	 10.58109	  5.87458	 14.37933	 -0.18318	 19.82907	706.67297	 23.20	
  6.800	-83.015	 19.43886	 10.12145	  9.55978	  5.88013	 14.38795	 -0.20061	 19.81212	706.79102	 23.20	
  6.787	-69.246	 19.46749	 11.13166	  8.64698	  6.08949	 14.16392	 -0.20228	 19.82477	706.78302	 23.20	
  6.792	-55.409	 19.47852	 12.07598	  7.82972	  6.49274	 13.70080	 -0.19195	 19.83500	706.66199	 23.20	
  6.795	-41.617	 19.50607	 12.88862	  7.19904	  7.03471	 13.02491	 -0.16631	 19.83923	706.63397	 23.20	
  6.808	-27.689	 19.53705	 13.54704	  6.71166	  7.82841	 12.17206	 -0.14837	 19.85420	706.66699	 23.20	
  6.796	-13.771	 19.50827	 13.90639	  6.42917	  8.74224	 11.17366	 -0.13808	 19.80341	706.81598	 23.20	
  6.800	  0.000	 19.56285	 14.09932	  6.36896	  9.73002	 10.22728	 -0.13090	 19.84496	706.83899	 23.10	
  6.796	 13.771	 19.57324	 14.00035	  6.54183	 10.70683	  9.25275	 -0.11105	 19.82992	706.78003	 23.20	
  6.808	 27.689	 19.59346	 13.67697	  6.87415	 11.67251	  8.32670	 -0.10363	 19.83573	706.77100	 23.10	
  6.795	 41.617	 19.58256	 13.07919	  7.41306	 12.51893	  7.61740	 -0.08854	 19.81166	706.78601	 23.10	
  6.792	 55.409	 19.60112	 12.31696	  8.12412	 13.22615	  7.06643	 -0.08296	 19.82406	706.81702	 23.20	
  6.787	 69.246	 19.63270	 11.41632	  8.97119	 13.75479	  6.65708	 -0.08618	 19.84748	706.74701	 23.20	
  6.800	 83.015	 19.60434	 10.40684	  9.87453	 14.00371	  6.40172	 -0.10427	 19.80704	706.70203	 23.20	
  6.800	 96.985	 19.64640	  9.46028	 10.87078	 14.04730	  6.41305	 -0.09774	 19.86221	706.80603	 23.10	
  6.787	110.754	 19.63103	  8.49816	 11.83558	 13.76977	  6.60633	 -0.10166	 19.84019	706.83899	 23.10	
  6.792	124.591	 19.58990	  7.63836	 12.69531	 13.26017	  6.98581	 -0.10566	 19.80656	706.83600	 23.10	
  6.795	138.383	 19.61429	  6.90961	 13.44924	 12.57616	  7.57060	 -0.08961	 19.85029	706.68201	 23.10	
  6.808	152.311	 19.56192	  6.33527	 13.99637	 11.68935	  8.25996	 -0.07455	 19.81340	706.65399	 23.10	
  6.796	166.229	 19.57164	  6.00838	 14.36627	 10.72516	  9.14163	 -0.09980	 19.84341	706.78497	 23.10	
  8.491	168.704	 19.30624	  4.80242	 15.20228	 10.50601	  8.82518	 -0.23285	 19.82296	706.76398	 23.10	
  8.502	157.493	 19.36143	  5.08910	 14.95907	 11.51880	  7.96471	 -0.21819	 19.85188	706.73297	 23.10	
  8.494	146.194	 19.37925	  5.52812	 14.48597	 12.48127	  7.17102	 -0.22121	 19.85521	706.73199	 23.10	
  8.495	135.039	 19.36330	  6.08555	 13.82996	 13.28420	  6.47222	 -0.22795	 19.82028	706.80902	 23.10	
  8.487	123.723	 19.38667	  6.82203	 13.04827	 14.01371	  5.91149	 -0.25801	 19.84288	706.72601	 23.10	
  8.492	112.575	 19.39130	  7.75133	 12.12710	 14.49445	  5.53615	 -0.25908	 19.82192	706.58398	 23.10	
  8.510	101.220	 19.41326	  8.72564	 11.15772	 14.83712	  5.29770	 -0.26888	 19.84559	706.74902	 23.10	
  8.500	 90.000	 19.40121	  9.68476	 10.18184	 14.90422	  5.23817	 -0.24828	 19.82611	706.65698	 23.10	
  8.510	 78.780	 19.38986	 10.70303	  9.18958	 14.80160	  5.30651	 -0.23517	 19.81630	706.70697	 23.10	
  8.492	 67.425	 19.40490	 11.72323	  8.24796	 14.47728	  5.59523	 -0.20983	 19.83463	706.72900	 23.10	
  8.487	 56.277	 19.37775	 12.63700	  7.40926	 13.93785	  6.01649	 -0.20551	 19.80919	706.74902	 23.10	
  8.495	 44.961	 19.37080	 13.45547	  6.66705	 13.24361	  6.58004	 -0.22559	 19.81560	706.90997	 23.10	
  8.494	 33.806	 19.38122	 14.13435	  6.06538	 12.41286	  7.30445	 -0.24310	 19.84114	706.70502	 23.10	
  8.502	 22.507	 19.36264	 14.61541	  5.61721	 11.45663	  8.09808	 -0.25507	 19.84349	706.77802	 23.10	
  8.491	 11.296	 19.31719	 14.89179	  5.31025	 10.47981	  8.95200	 -0.26428	 19.81713	706.63599	 23.10	
  8.500	  0.000	 19.33248	 14.98487	  5.16717	  9.48013	  9.99710	 -0.28085	 19.84813	706.78497	 23.10	
  8.491	-11.296	 19.29255	 14.84184	  5.19735	  8.46321	 10.98721	 -0.28307	 19.82888	706.83099	 23.10	
  8.502	-22.507	 19.28120	 14.49037	  5.41431	  7.51777	 11.99557	 -0.27825	 19.83240	706.81299	 23.10	
  8.494	-33.806	 19.24141	 13.95244	  5.78878	  6.66754	 12.90348	 -0.29355	 19.82587	706.87500	 23.10	
  8.495	-44.961	 19.21939	 13.24060	  6.31963	  5.92385	 13.72141	 -0.32397	 19.82181	706.75201	 23.10	
  8.487	-56.277	 19.24051	 12.39665	  7.03697	  5.45860	 14.39895	 -0.34777	 19.85100	706.79199	 23.10	
  8.492	-67.425	 19.20982	 11.40460	  7.88125	  5.05011	 14.86814	 -0.36989	 19.83249	706.69202	 23.10	
  8.510	-78.780	 19.18260	 10.36883	  8.79703	  4.77176	 15.17140	 -0.37823	 19.82216	706.71002	 23.10	
  8.500	-90.000	 19.19211	  9.39343	  9.78823	  4.69858	 15.26937	 -0.36734	 19.83216	706.70697	 23.10	
  8.510	-101.220	 19.18825	  8.38840	 10.81394	  4.76712	 15.16710	 -0.33796	 19.83361	706.76801	 23.10	
  8.492	-112.575	 19.17908	  7.41815	 11.82296	  5.02474	 14.80713	 -0.30005	 19.82752	706.74902	 23.10	
  8.487	-123.723	 19.18718	  6.54294	 12.75406	  5.44940	 14.28876	 -0.27507	 19.83785	706.67297	 23.10	
  8.495	-135.039	 19.20568	  5.84403	 13.61771	  6.00417	 13.61032	 -0.27309	 19.84721	706.84998	 23.10	
  8.494	-146.194	 19.21894	  5.34524	 14.29521	  6.73899	 12.76457	 -0.26077	 19.83498	706.64203	 23.10	
  8.502	-157.493	 19.23838	  4.95950	 14.83359	  7.57289	 11.80737	 -0.24772	 19.83340	706.68201	 23.10	
  8.491	-168.704	 19.26167	  4.76742	 15.14934	  8.47460	 10.83287	 -0.24316	 19.83324	706.80798	 23.10	
  8.500	180.000	 19.33844	  4.70760	 15.32747	  9.52000	  9.85010	 -0.24684	 19.87884	706.68103	 23.10	
 10.200	180.000	 18.96321	  3.49596	 16.04958	  9.19417	  9.51699	 -0.40627	 19.82509	706.73199	 23.10	
 10.191	-170.497	 18.94697	  3.55604	 15.95202	  8.15504	 10.54989	 -0.41252	 19.84250	706.66199	 23.10	
 10.210	-161.034	 18.88127	  3.70400	 15.65724	  7.23233	 11.53511	 -0.39563	 19.81884	706.66998	 23.10	
 10.194	-151.526	 18.86780	  4.02793	 15.19859	  6.34696	 12.54454	 -0.40588	 19.82296	706.68701	 23.10	
 10.190	-142.105	 18.86194	  4.48596	 14.59686	  5.55529	 13.45228	 -0.39996	 19.83454	706.79401	 23.10	
 10.215	-132.646	 18.84526	  5.03458	 13.85389	  4.86445	 14.25361	 -0.41102	 19.83641	706.76398	 23.10	
 10.203	-123.092	 18.81921	  5.72395	 12.96655	  4.29810	 14.92692	 -0.42399	 19.81728	706.76300	 23.10	
 10.192	-113.678	 18.83056	  6.56071	 12.02965	  3.90170	 15.47922	 -0.45076	 19.83743	706.65002	 23.10	
 10.208	-104.249	 18.82817	  7.48451	 11.03111	  3.59708	 15.87546	 -0.50376	 19.84029	706.71503	 23.10	
 10.210	-94.801	 18.83605	  8.52176	  9.99069	  3.44153	 16.06589	 -0.53694	 19.84479	706.74103	 23.10	
 10.210	-85.199	 18.80520	  9.53645	  8.93287	  3.42982	 16.05752	 -0.54824	 19.81151	706.82800	 23.10	
 10.208	-75.751	 18.83846	 10.59986	  7.96672	  3.58979	 15.90910	 -0.54335	 19.83369	706.70203	 23.10	
 10.192	-66.322	 18.85971	 11.60926	  7.07360	  3.90599	 15.57265	 -0.54779	 19.84111	706.77197	 23.10	
 10.203	-56.908	 18.85583	 12.57792	  6.23021	  4.29002	 15.06638	 -0.52713	 19.81998	706.76898	 23.10	
 10.215	-47.354	 18.91937	 13.49779	  5.51029	  4.78890	 14.44117	 -0.49199	 19.87261	706.79401	 23.10	
 10.190	-37.895	 18.89550	 14.24424	  4.89935	  5.46220	 13.63606	 -0.45235	 19.83218	706.60303	 23.10	
 10.194	-28.474	 18.92435	 14.87287	  4.44386	  6.27662	 12.73954	 -0.42941	 19.83384	706.78497	 23.10	
 10.210	-18.966	 18.95517	 15.37733	  4.12876	  7.20268	 11.74013	 -0.41887	 19.84125	706.78497	 23.10	
 10.191	 -9.503	 18.96666	 15.64731	  3.98033	  8.13523	 10.71965	 -0.42964	 19.82103	706.78497	 23.10	
 10.200	  0.000	 18.99516	 15.77623	  3.94646	  9.17172	  9.69959	 -0.43802	 19.83340	706.63397	 23.10	
 10.191	  9.503	 19.03675	 15.74237	  4.08636	 10.20722	  8.68264	 -0.42789	 19.85119	706.94397	 23.10	
 10.210	 18.966	 19.01889	 15.49821	  4.30258	 11.17154	  7.77821	 -0.42226	 19.81652	706.77502	 23.10	
 10.194	 28.474	 19.05133	 15.08123	  4.70960	 12.18575	  6.93294	 -0.40659	 19.83134	706.75201	 23.10	
 10.190	 37.895	 19.06951	 14.50673	  5.23378	 13.12354	  6.13318	 -0.39525	 19.83265	706.82800	 23.10	
 10.215	 47.354	 19.08914	 13.80250	  5.86318	 13.94594	  5.44842	 -0.36384	 19.85156	706.82501	 23.10	
 10.203	 56.908	 19.07984	 12.92309	  6.63878	 14.61552	  4.88106	 -0.34342	 19.82561	706.72900	 23.10	
 10.192	 66.322	 19.10307	 12.00471	  7.49874	 15.14294	  4.46549	 -0.35146	 19.83550	706.72302	 23.10	
 10.208	 75.751	 19.09067	 10.99861	  8.37914	 15.52629	  4.14650	 -0.38398	 19.82358	706.66498	 23.10	
 10.210	 85.199	 19.09021	  9.96568	  9.35621	 15.71953	  3.99805	 -0.41558	 19.81792	706.66803	 23.10	
 10.210	 94.801	 19.09555	  8.94363	 10.37372	 15.75455	  3.95795	 -0.44482	 19.82782	706.61200	 23.00	
 10.208	104.249	 19.08775	  7.91979	 11.38810	 15.53688	  4.11698	 -0.44492	 19.82429	706.61401	 23.00	
 10.192	113.678	 19.10813	  6.94222	 12.37128	 15.21098	  4.37350	 -0.45238	 19.85823	706.72101	 23.00	
 10.203	123.092	 19.07985	  6.08994	 13.25814	 14.65925	  4.78943	 -0.41933	 19.82410	706.80798	 23.10	
 10.215	132.646	 19.07474	  5.35482	 14.10985	 13.99916	  5.32016	 -0.38705	 19.83825	706.64203	 23.00	
 10.190	142.105	 19.07766	  4.72782	 14.82027	 13.18132	  6.01637	 -0.35922	 19.84492	706.68500	 23.00	
 10.194	151.526	 19.04486	  4.20724	 15.36908	 12.24922	  6.78270	 -0.35240	 19.82054	706.59802	 23.00	
 10.210	161.034	 19.03140	  3.82486	 15.77142	 11.26751	  7.63623	 -0.35335	 19.83232	706.62299	 23.00	
 10.191	170.497	 18.99828	  3.59321	 15.98409	 10.23935	  8.49809	 -0.37958	 19.82681	706.63702	 23.00	
 11.899	171.783	 18.62130	  2.33158	 16.73178	  9.91672	  8.15957	 -0.54744	 19.84861	706.59198	 23.00	
 11.890	163.610	 18.64434	  2.55071	 16.51547	 10.92974	  7.28444	 -0.52278	 19.83906	706.58301	 23.00	
 11.889	155.445	 18.65641	  2.84382	 16.17754	 11.94403	  6.38870	 -0.50355	 19.82316	706.69202	 23.00	
 11.909	147.299	 18.70284	  3.23968	 15.72220	 12.93969	  5.55631	 -0.50681	 19.86561	706.58099	 23.00	
 11.902	139.148	 18.70625	  3.85811	 15.07755	 13.82687	  4.80735	 -0.51858	 19.85538	706.59497	 23.00	
 11.894	130.867	 18.70320	  4.55432	 14.31687	 14.59354	  4.18713	 -0.54279	 19.84367	706.78601	 23.00	
 11.897	122.732	 18.72441	  5.30426	 13.49890	 15.28415	  3.63702	 -0.57425	 19.85516	706.69202	 23.00	
 11.903	114.597	 18.72277	  6.12075	 12.59342	 15.79406	  3.23793	 -0.61979	 19.83285	706.71600	 23.00	
 11.893	106.346	 18.73274	  7.10186	 11.62103	 16.19188	  2.94100	 -0.63207	 19.84118	706.53302	 23.00	
 11.892	 98.155	 18.72684	  8.11580	 10.60238	 16.40915	  2.75232	 -0.62368	 19.82328	706.59998	 23.00	
 11.900	 90.000	 18.73018	  9.14431	  9.58234	 16.48448	  2.70900	 -0.61522	 19.82815	706.52698	 23.00	
 11.892	 81.845	 18.72217	 10.16443	  8.57604	 16.38202	  2.77778	 -0.58127	 19.81846	706.54303	 23.00	
 11.893	 73.654	 18.71997	 11.20894	  7.60779	 16.12790	  2.99823	 -0.54002	 19.81488	706.52100	 23.00	
 11.903	 65.403	 18.74681	 12.21961	  6.70577	 15.75890	  3.33504	 -0.49528	 19.84330	706.53998	 23.00	
 11.897	 57.268	 18.71511	 13.16652	  5.86142	 15.19102	  3.75763	 -0.47462	 19.82331	706.51898	 23.00	
 11.894	 49.133	 18.70964	 14.01423	  5.10238	 14.50984	  4.33715	 -0.49194	 19.82571	706.53601	 23.00	
 11.902	 40.852	 18.71049	 14.79876	  4.41271	 13.73582	  4.96671	 -0.52137	 19.83924	706.50201	 23.00	
 11.909	 32.701	 18.68283	 15.43012	  3.84249	 12.84326	  5.73264	 -0.55972	 19.83216	706.52899	 23.00	
 11.889	 24.555	 18.67811	 15.92752	  3.39636	 11.87825	  6.57592	 -0.58029	 19.84463	706.57703	 23.00	
 11.890	 16.390	 18.65654	 16.29664	  3.04785	 10.88054	  7.43643	 -0.59086	 19.84343	706.66803	 23.00	
 11.899	  8.217	 18.64459	 16.49035	  2.84322	  9.87875	  8.32143	 -0.60825	 19.84674	706.53198	 23.00	
 11.900	  0.000	 18.60429	 16.54074	  2.71353	  8.81219	  9.35435	 -0.57960	 19.83713	706.46198	 23.00	
 11.899	 -8.217	 18.56558	 16.41153	  2.73421	  7.83220	 10.37769	 -0.58121	 19.80894	706.50098	 23.00	
 11.890	-16.390	 18.55357	 16.15088	  2.85369	  6.87567	 11.41580	 -0.56110	 19.82564	706.50098	 23.00	
 11.889	-24.555	 18.54762	 15.76030	  3.10225	  5.93818	 12.44770	 -0.55384	 19.85357	706.52600	 23.00	
 11.909	-32.701	 18.47349	 15.16598	  3.47297	  5.06352	 13.34470	 -0.56465	 19.80041	706.54700	 23.00	
 11.902	-40.852	 18.48671	 14.50013	  3.99152	  4.32946	 14.21665	 -0.59623	 19.83169	706.66803	 23.00	
 11.894	-49.133	 18.45831	 13.67095	  4.64593	  3.65066	 14.98783	 -0.61925	 19.81827	706.55798	 23.00	
 11.897	-57.268	 18.44790	 12.78030	  5.38080	  3.13390	 15.63131	 -0.64746	 19.82762	706.57501	 23.00	
 11.903	-65.403	 18.45554	 11.80713	  6.21546	  2.70859	 16.15381	 -0.68822	 19.85667	706.51599	 23.00	
 11.893	-73.654	 18.44218	 10.78943	  7.11260	  2.41394	 16.49852	 -0.68578	 19.84281	706.48999	 23.00	
 11.892	-81.845	 18.44685	  9.72076	  8.11211	  2.24006	 16.71322	 -0.70951	 19.85026	706.49597	 23.00	
 11.900	-90.000	 18.43797	  8.67016	  9.10767	  2.17830	 16.77514	 -0.69947	 19.84872	706.62299	 23.00	
 11.892	-98.155	 18.41990	  7.64027	 10.13706	  2.24202	 16.66571	 -0.67049	 19.83182	706.55701	 23.00	
 11.893	-106.346	 18.42100	  6.65657	 11.17388	  2.41279	 16.43367	 -0.65252	 19.84299	706.61200	 23.00	
 11.903	-114.597	 18.40215	  5.72830	 12.16024	  2.71469	 16.04760	 -0.59413	 19.82898	706.59998	 23.00	
 11.897	-122.732	 18.41061	  4.90984	 13.13547	  3.16608	 15.50384	 -0.55193	 19.83960	706.58301	 23.00	
 11.894	-130.867	 18.42000	  4.17971	 14.02221	  3.71462	 14.82990	 -0.54835	 19.83739	706.47400	 23.00	
 11.902	-139.148	 18.44409	  3.59001	 14.83322	  4.37674	 14.05412	 -0.55704	 19.85069	706.44598	 23.00	
 11.909	-147.299	 18.46452	  3.08666	 15.49658	  5.12692	 13.17018	 -0.56079	 19.84569	706.49500	 23.00	
 11.889	-155.445	 18.50121	  2.70790	 16.01990	  5.99755	 12.21557	 -0.56773	 19.85188	706.56897	 23.00	
 11.890	-163.610	 18.51979	  2.45455	 16.43058	  6.91390	 11.19137	 -0.57281	 19.84784	706.47900	 23.00	
 11.899	-171.783	 18.54326	  2.31313	 16.68024	  7.83211	 10.17194	 -0.57187	 19.83617	706.40601	 23.00	
 11.900	180.000	 18.58442	  2.27694	 16.78402	  8.83058	  9.12252	 -0.56424	 19.84070	706.46997	 23.00	
 13.600	180.000	 18.13533	  1.11497	 17.43063	  8.44869	  8.70031	 -0.73187	 19.85471	706.50403	 23.00	
 13.608	-172.853	 18.06159	  1.14083	 17.31878	  7.44545	  9.72636	 -0.74047	 19.81980	706.61401	 23.00	
 13.611	-165.583	 18.02043	  1.23630	 17.11901	  6.51618	 10.75372	 -0.75214	 19.83560	706.58002	 23.00	
 13.601	-158.353	 18.03456	  1.47316	 16.77943	  5.58617	 11.81695	 -0.73705	 19.86580	706.54102	 23.00	
 13.609	-151.210	 17.99250	  1.77663	 16.29994	  4.70880	 12.79321	 -0.72331	 19.85762	706.49298	 23.00	
 13.611	-143.999	 17.96030	  2.17676	 15.69127	  3.86739	 13.70330	 -0.70790	 19.85349	706.54401	 23.00	
 13.601	-136.825	 17.92970	  2.66132	 14.96995	  3.16614	 14.56796	 -0.67707	 19.83307	706.45001	 23.00	
 13.596	-129.640	 17.91749	  3.28421	 14.15926	  2.51511	 15.32467	 -0.66840	 19.83521	706.47302	 22.90	
