FileType=PCF
NHL=14
Date=08/31/17	11:45:35
Facility=APL
Serial=16328-11
Customer=NASA
NP=6
Mach=0.100000
Calibration=1:1
CalPts=490
TstPts=95
PortNumbering=AP Standard
Units=Torr C m/s kg/m^3 deg mm 
Theta[deg]	Phi[deg]	P1[Torr]	P2[Torr]	P3[Torr]	P4[Torr]	P5[Torr]	P6[Torr]	Pt[Torr]	Ps[Abs,Torr]	Ts[C]	
  0.000	  0.000	  5.06461	  2.65522	  2.77005	  2.62741	  2.76705	  0.03547	  5.06319	705.51898	 23.60	
  1.691	128.401	  5.05889	  2.51446	  2.88860	  2.80461	  2.56549	  0.03324	  5.05774	705.57800	 23.60	
  1.692	 77.194	  5.07077	  2.71482	  2.72143	  2.87071	  2.52725	  0.03343	  5.06948	705.52197	 23.60	
  1.699	 26.182	  5.05673	  2.86782	  2.55257	  2.72582	  2.65255	  0.03070	  5.05445	705.51898	 23.60	
  1.699	-26.182	  5.07077	  2.86039	  2.54656	  2.52107	  2.85438	  0.02424	  5.07241	705.57800	 23.60	
  1.692	-77.194	  5.06722	  2.69150	  2.68862	  2.39504	  2.98066	  0.02349	  5.06804	705.62402	 23.60	
  1.691	-128.401	  5.07073	  2.49270	  2.89984	  2.44271	  2.93158	  0.02619	  5.07270	705.75000	 23.60	
  1.700	180.000	  5.07138	  2.41812	  2.98673	  2.60922	  2.76301	  0.03019	  5.07054	705.53601	 23.60	
  3.400	180.000	  5.05945	  2.13747	  3.23273	  2.58562	  2.71596	  0.01576	  5.06713	705.58600	 23.60	
  3.388	-152.325	  5.05397	  2.17567	  3.16303	  2.35260	  2.95032	  0.01408	  5.06679	705.56500	 23.60	
  3.397	-124.529	  5.04846	  2.31813	  2.98831	  2.18053	  3.13655	  0.00917	  5.06154	705.60303	 23.60	
  3.399	-96.763	  5.04824	  2.53299	  2.75894	  2.10571	  3.22722	  0.00596	  5.06332	705.59302	 23.60	
  3.394	-69.283	  5.04685	  2.77045	  2.52616	  2.12915	  3.20033	  0.00246	  5.06077	705.69098	 23.60	
  3.400	-41.398	  5.05221	  2.98613	  2.34884	  2.25714	  3.06253	  0.00566	  5.06215	705.63800	 23.60	
  3.401	-14.021	  5.06435	  3.11340	  2.26641	  2.46567	  2.85525	  0.00736	  5.07642	705.70599	 23.60	
  3.401	 14.021	  5.06015	  3.11390	  2.28731	  2.70044	  2.61606	  0.01127	  5.06648	705.52197	 23.60	
  3.400	 41.398	  5.07160	  3.01694	  2.40254	  2.93215	  2.42230	  0.01670	  5.07349	705.59003	 23.60	
  3.394	 69.283	  5.05978	  2.80917	  2.57872	  3.05653	  2.29643	  0.01786	  5.06223	705.57501	 23.60	
  3.399	 96.763	  5.06668	  2.58325	  2.80515	  3.09407	  2.26670	  0.01914	  5.06974	705.61298	 23.50	
  3.397	124.529	  5.07008	  2.36559	  3.02361	  3.01350	  2.33422	  0.01992	  5.07117	705.52802	 23.50	
  3.388	152.325	  5.06039	  2.20637	  3.17277	  2.82813	  2.48473	  0.01870	  5.06833	705.45203	 23.50	
  5.099	161.165	  5.04146	  1.89662	  3.43345	  2.80648	  2.43078	 -0.00119	  5.06763	705.46802	 23.50	
  5.109	142.013	  5.04892	  2.01250	  3.31922	  3.03963	  2.22365	  0.00177	  5.07061	705.51898	 23.50	
  5.095	123.033	  5.05289	  2.19132	  3.13234	  3.22232	  2.07037	  0.00078	  5.07065	705.42902	 23.50	
  5.105	104.191	  5.05636	  2.41716	  2.90529	  3.32675	  1.99063	 -0.00098	  5.07561	705.56500	 23.50	
  5.093	 85.207	  5.05590	  2.66745	  2.66066	  3.34496	  1.97767	 -0.00161	  5.07076	705.63800	 23.50	
  5.104	 66.290	  5.06171	  2.92267	  2.42934	  3.27978	  2.03568	 -0.00069	  5.07713	705.62903	 23.50	
  5.094	 47.331	  5.04844	  3.13161	  2.22522	  3.12160	  2.16306	 -0.00075	  5.06758	705.73401	 23.50	
  5.089	 28.397	  5.05144	  3.28748	  2.08451	  2.91804	  2.34958	 -0.00201	  5.07601	705.68500	 23.50	
  5.096	  9.576	  5.04452	  3.37075	  1.99362	  2.67320	  2.57739	 -0.00798	  5.07194	705.63202	 23.50	
  5.096	 -9.576	  5.04304	  3.36486	  1.97935	  2.41416	  2.83644	 -0.01167	  5.07593	705.52197	 23.50	
  5.089	-28.397	  5.03061	  3.26278	  2.03957	  2.18526	  3.06638	 -0.01579	  5.06816	705.56702	 23.60	
  5.094	-47.331	  5.02741	  3.09560	  2.17060	  1.99461	  3.27508	 -0.01967	  5.06898	705.62402	 23.60	
  5.104	-66.290	  5.02746	  2.87154	  2.36210	  1.86554	  3.42161	 -0.01981	  5.07019	705.55902	 23.60	
  5.093	-85.207	  5.02653	  2.61923	  2.59463	  1.80735	  3.48392	 -0.02233	  5.07119	705.54700	 23.60	
  5.105	-104.191	  5.01644	  2.35932	  2.84607	  1.81736	  3.45546	 -0.01692	  5.06107	705.52802	 23.60	
  5.095	-123.033	  5.03258	  2.14732	  3.09210	  1.92411	  3.34703	 -0.00921	  5.07467	705.47400	 23.60	
  5.109	-142.013	  5.03607	  1.97912	  3.29200	  2.08761	  3.16731	 -0.00656	  5.08039	705.54999	 23.60	
  5.099	-161.165	  5.03294	  1.86912	  3.42335	  2.30515	  2.92680	 -0.00113	  5.07019	705.69897	 23.60	
  5.100	180.000	  5.03689	  1.84755	  3.47171	  2.55112	  2.67568	 -0.00163	  5.06864	705.45697	 23.60	
  6.800	180.000	  5.00002	  1.54454	  3.70314	  2.50092	  2.62696	 -0.02853	  5.07414	705.57001	 23.60	
  6.796	-166.229	  4.97922	  1.55256	  3.65704	  2.25195	  2.86571	 -0.02904	  5.06006	705.60999	 23.60	
  6.808	-152.311	  4.98708	  1.63407	  3.56491	  2.02649	  3.11367	 -0.03427	  5.07650	705.58197	 23.60	
  6.795	-138.383	  4.97992	  1.75131	  3.40721	  1.81942	  3.33566	 -0.03868	  5.07049	705.61499	 23.60	
  6.792	-124.591	  4.96973	  1.92013	  3.20153	  1.66307	  3.50778	 -0.03962	  5.06250	705.63000	 23.60	
  6.787	-110.754	  4.96126	  2.12701	  2.96626	  1.55160	  3.63011	 -0.04551	  5.05738	705.63702	 23.60	
  6.800	-96.985	  4.97361	  2.36635	  2.72941	  1.50328	  3.70745	 -0.05610	  5.07057	705.62903	 23.60	
  6.800	-83.015	  4.97238	  2.62133	  2.47618	  1.50003	  3.70989	 -0.05921	  5.06829	705.68500	 23.60	
  6.787	-69.246	  4.97038	  2.86877	  2.24166	  1.55075	  3.64969	 -0.05517	  5.06172	705.48798	 23.60	
  6.792	-55.409	  4.97964	  3.10709	  2.04123	  1.66095	  3.53411	 -0.05605	  5.06893	705.57001	 23.60	
  6.795	-41.617	  4.98116	  3.31045	  1.87652	  1.81584	  3.36137	 -0.05407	  5.06860	705.74200	 23.60	
  6.808	-27.689	  4.97809	  3.46514	  1.75595	  2.00839	  3.14362	 -0.04576	  5.05951	705.67999	 23.60	
  6.796	-13.771	  4.99589	  3.57512	  1.69426	  2.24221	  2.91236	 -0.04017	  5.07364	705.47498	 23.60	
  6.800	  0.000	  5.00027	  3.61716	  1.67713	  2.48721	  2.66184	 -0.04154	  5.07352	705.58698	 23.60	
  6.796	 13.771	  5.00894	  3.59510	  1.71756	  2.74231	  2.41814	 -0.03549	  5.07475	705.72803	 23.60	
  6.808	 27.689	  5.00613	  3.50425	  1.80140	  2.97750	  2.19083	 -0.03195	  5.06616	705.66498	 23.60	
  6.795	 41.617	  5.01732	  3.35776	  1.94469	  3.20726	  1.99634	 -0.02985	  5.07719	705.71600	 23.60	
  6.792	 55.409	  5.01800	  3.16313	  2.11903	  3.38663	  1.83847	 -0.02568	  5.07336	705.62097	 23.60	
  6.787	 69.246	  5.02103	  2.93675	  2.32929	  3.51669	  1.72905	 -0.02455	  5.07306	705.66199	 23.60	
  6.800	 83.015	  5.01680	  2.68884	  2.55733	  3.57858	  1.67410	 -0.02832	  5.06755	705.65399	 23.60	
  6.800	 96.985	  5.01877	  2.43527	  2.80516	  3.57972	  1.67521	 -0.02980	  5.06838	705.74799	 23.60	
  6.787	110.754	  5.01308	  2.20003	  3.03881	  3.50890	  1.72475	 -0.02769	  5.06309	705.73602	 23.60	
  6.792	124.591	  5.01198	  1.99017	  3.25607	  3.39319	  1.82044	 -0.02674	  5.06680	705.67102	 23.60	
  6.795	138.383	  5.00580	  1.80941	  3.44225	  3.21589	  1.96718	 -0.02531	  5.06441	705.58197	 23.60	
  6.808	152.311	  4.99830	  1.66547	  3.58688	  2.99632	  2.15107	 -0.02319	  5.06063	705.63800	 23.60	
  6.796	166.229	  4.99338	  1.57786	  3.67285	  2.75349	  2.37471	 -0.02732	  5.06035	705.60699	 23.60	
  8.491	168.704	  4.94217	  1.27129	  3.89164	  2.70851	  2.30385	 -0.06462	  5.07021	705.70801	 23.60	
  8.502	157.493	  4.94697	  1.33861	  3.82582	  2.96058	  2.06916	 -0.05974	  5.07017	705.64099	 23.60	
  8.494	146.194	  4.95339	  1.45531	  3.70153	  3.19732	  1.86295	 -0.06099	  5.06791	705.56799	 23.60	
  8.495	135.039	  4.95097	  1.60756	  3.53764	  3.40066	  1.68215	 -0.06471	  5.06351	705.63202	 23.60	
  8.487	123.723	  4.96231	  1.80076	  3.34280	  3.58160	  1.53868	 -0.06750	  5.07245	705.61499	 23.60	
  8.492	112.575	  4.96070	  2.01684	  3.11579	  3.70663	  1.43744	 -0.06731	  5.06501	705.59003	 23.60	
  8.510	101.220	  4.96392	  2.25475	  2.87699	  3.78269	  1.37956	 -0.06665	  5.06581	705.62903	 23.60	
  8.500	 90.000	  4.96990	  2.50984	  2.62880	  3.81451	  1.35953	 -0.07098	  5.07387	705.57599	 23.60	
  8.510	 78.780	  4.95969	  2.76202	  2.37928	  3.78057	  1.38211	 -0.06652	  5.06550	705.59900	 23.60	
  8.492	 67.425	  4.95704	  3.01504	  2.14024	  3.69731	  1.44368	 -0.05923	  5.06371	705.63202	 23.60	
  8.487	 56.277	  4.95889	  3.24900	  1.93243	  3.56661	  1.55652	 -0.05841	  5.06519	705.57501	 23.60	
  8.495	 44.961	  4.96150	  3.46019	  1.74829	  3.39205	  1.71243	 -0.06447	  5.07226	705.63702	 23.60	
  8.494	 33.806	  4.95042	  3.62411	  1.59623	  3.17309	  1.89551	 -0.06495	  5.06631	705.65399	 23.60	
  8.502	 22.507	  4.94210	  3.74563	  1.47634	  2.93517	  2.10802	 -0.06827	  5.06404	705.74200	 23.60	
  8.491	 11.296	  4.93965	  3.81755	  1.40326	  2.67806	  2.34743	 -0.07594	  5.06763	705.79303	 23.60	
  8.500	  0.000	  4.94491	  3.84502	  1.37405	  2.42216	  2.60807	 -0.08009	  5.07732	705.65198	 23.60	
  8.491	-11.296	  4.92732	  3.80188	  1.37819	  2.16562	  2.85548	 -0.07892	  5.06905	705.65698	 23.60	
  8.502	-22.507	  4.92169	  3.71467	  1.43049	  1.92295	  3.11007	 -0.08004	  5.06783	705.69598	 23.60	
  8.494	-33.806	  4.90824	  3.57331	  1.52328	  1.70989	  3.33204	 -0.08590	  5.06271	705.63800	 23.60	
  8.495	-44.961	  4.91263	  3.39678	  1.66432	  1.52612	  3.54442	 -0.09517	  5.07203	705.67200	 23.60	
  8.487	-56.277	  4.90671	  3.18120	  1.83868	  1.37604	  3.71146	 -0.09735	  5.06800	705.71997	 23.60	
  8.492	-67.425	  4.90515	  2.94250	  2.04619	  1.27279	  3.82868	 -0.09663	  5.06612	705.72400	 23.60	
  8.510	-78.780	  4.90417	  2.68411	  2.28054	  1.20245	  3.90975	 -0.10119	  5.06860	705.62097	 23.60	
  8.500	-90.000	  4.90225	  2.42595	  2.52972	  1.18144	  3.93057	 -0.09981	  5.06506	705.62299	 23.60	
  8.510	-101.220	  4.90323	  2.16945	  2.78881	  1.20144	  3.90578	 -0.09323	  5.07063	705.68597	 23.60	
  8.492	-112.575	  4.90630	  1.93303	  3.04198	  1.27186	  3.82165	 -0.08139	  5.07509	705.81201	 23.60	
  8.487	-123.723	  4.90466	  1.72407	  3.27391	  1.38961	  3.68272	 -0.07561	  5.06777	705.72400	 23.70	
  8.495	-135.039	  4.91091	  1.54506	  3.48871	  1.53602	  3.51807	 -0.07572	  5.07411	705.77301	 23.70	
  8.494	-146.194	  4.91380	  1.40680	  3.66010	  1.72688	  3.30159	 -0.07272	  5.07039	705.76501	 23.70	
  8.502	-157.493	  4.91064	  1.30351	  3.78954	  1.94286	  3.05651	 -0.06671	  5.05909	705.64099	 23.70	
  8.491	-168.704	  4.92187	  1.24621	  3.87631	  2.18180	  2.81118	 -0.06526	  5.06301	705.64899	 23.70	
  8.500	180.000	  4.93225	  1.22908	  3.91720	  2.43968	  2.55856	 -0.06850	  5.06835	705.65399	 23.70	
 10.200	180.000	  4.84933	  0.92363	  4.11028	  2.36891	  2.47682	 -0.10974	  5.06922	705.74799	 23.60	
 10.191	-170.497	  4.84063	  0.93048	  4.08381	  2.10474	  2.73646	 -0.10894	  5.06526	705.74402	 23.60	
 10.210	-161.034	  4.83849	  0.97768	  4.01402	  1.86285	  2.99719	 -0.10673	  5.07452	705.70001	 23.60	
 10.194	-151.526	  4.82512	  1.06097	  3.89318	  1.62902	  3.24158	 -0.11171	  5.06909	705.74200	 23.60	
 10.190	-142.105	  4.82539	  1.18143	  3.74108	  1.42691	  3.47374	 -0.11443	  5.07275	705.78699	 23.60	
 10.215	-132.646	  4.81603	  1.33099	  3.54977	  1.24723	  3.67390	 -0.11462	  5.06753	705.72400	 23.60	
 10.203	-123.092	  4.81447	  1.51578	  3.33057	  1.10234	  3.84534	 -0.11455	  5.06837	705.75897	 23.60	
 10.192	-113.678	  4.81993	  1.73133	  3.09417	  0.99568	  3.98317	 -0.12101	  5.07644	705.67999	 23.60	
 10.208	-104.249	  4.81706	  1.96068	  2.84286	  0.91240	  4.07800	 -0.13528	  5.07588	705.66498	 23.70	
 10.210	-94.801	  4.81222	  2.20596	  2.58257	  0.87178	  4.12494	 -0.14413	  5.07059	705.75500	 23.70	
 10.210	-85.199	  4.80533	  2.46948	  2.31444	  0.86709	  4.12486	 -0.14609	  5.06446	705.78101	 23.70	
 10.208	-75.751	  4.82243	  2.73979	  2.07509	  0.90833	  4.09841	 -0.14699	  5.07877	705.83099	 23.70	
 10.192	-66.322	  4.81720	  2.99300	  1.84214	  0.98238	  4.00549	 -0.13909	  5.07037	705.88300	 23.70	
 10.203	-56.908	  4.81749	  3.23240	  1.63638	  1.09076	  3.87574	 -0.13664	  5.06611	705.71100	 23.70	
 10.215	-47.354	  4.83709	  3.47442	  1.45270	  1.23376	  3.72618	 -0.13605	  5.08362	705.81799	 23.70	
 10.190	-37.895	  4.82702	  3.65188	  1.30624	  1.40642	  3.51621	 -0.12920	  5.06768	705.78601	 23.70	
 10.194	-28.474	  4.84213	  3.82300	  1.19045	  1.60587	  3.30034	 -0.12159	  5.07699	705.84601	 23.70	
 10.210	-18.966	  4.85007	  3.94058	  1.11556	  1.83658	  3.05642	 -0.11520	  5.07678	705.87598	 23.70	
 10.191	 -9.503	  4.84769	  4.01014	  1.07136	  2.08637	  2.79086	 -0.11528	  5.06932	705.82703	 23.70	
 10.200	  0.000	  4.86701	  4.04936	  1.06863	  2.34695	  2.53951	 -0.11939	  5.07927	705.74402	 23.70	
 10.191	  9.503	  4.85844	  4.02875	  1.09071	  2.60781	  2.27105	 -0.11970	  5.06852	705.67700	 23.70	
 10.210	 18.966	  4.86752	  3.96906	  1.15911	  2.87294	  2.02642	 -0.10939	  5.06978	705.75800	 23.70	
 10.194	 28.474	  4.86906	  3.86268	  1.25596	  3.12016	  1.80186	 -0.10829	  5.06777	705.66803	 23.70	
 10.190	 37.895	  4.88208	  3.72594	  1.38916	  3.36019	  1.59629	 -0.10705	  5.07514	706.01099	 23.70	
 10.215	 47.354	  4.88442	  3.54184	  1.54572	  3.57003	  1.41516	 -0.10216	  5.07335	705.80103	 23.70	
 10.203	 56.908	  4.88583	  3.32701	  1.74221	  3.73709	  1.27377	 -0.09734	  5.07108	705.76703	 23.70	
 10.192	 66.322	  4.89503	  3.09401	  1.95841	  3.87392	  1.16965	 -0.09536	  5.07628	705.77802	 23.70	
 10.208	 75.751	  4.89942	  2.84242	  2.18959	  3.97555	  1.08929	 -0.10532	  5.07864	705.67200	 23.70	
 10.210	 85.199	  4.89610	  2.58175	  2.43232	  4.02154	  1.04759	 -0.11414	  5.07812	705.77002	 23.70	
 10.210	 94.801	  4.89101	  2.30929	  2.68911	  4.01913	  1.04376	 -0.11607	  5.07293	705.67499	 23.70	
 10.208	104.249	  4.89562	  2.06436	  2.94146	  3.97659	  1.08202	 -0.11276	  5.07919	705.78998	 23.70	
 10.192	113.678	  4.89361	  1.82658	  3.18562	  3.88662	  1.15315	 -0.11044	  5.07595	705.85400	 23.70	
 10.203	123.092	  4.87876	  1.60269	  3.40576	  3.74734	  1.25326	 -0.11004	  5.06313	705.83502	 23.70	
 10.215	132.646	  4.87794	  1.40893	  3.61445	  3.57915	  1.38783	 -0.10733	  5.06624	705.86200	 23.70	
 10.190	142.105	  4.88300	  1.24875	  3.79197	  3.38323	  1.56022	 -0.10192	  5.07499	705.75897	 23.70	
 10.194	151.526	  4.88024	  1.12020	  3.93494	  3.15073	  1.76112	 -0.09622	  5.07449	705.91901	 23.70	
 10.210	161.034	  4.86900	  1.01506	  4.03644	  2.89777	  1.98109	 -0.09943	  5.06948	705.87402	 23.70	
 10.191	170.497	  4.86294	  0.95272	  4.09450	  2.64071	  2.22169	 -0.10463	  5.07190	705.68500	 23.70	
 11.899	171.783	  4.76766	  0.64286	  4.28003	  2.56210	  2.12907	 -0.14602	  5.07685	705.83801	 23.70	
 11.890	163.610	  4.77340	  0.69653	  4.22853	  2.81733	  1.88715	 -0.14188	  5.07079	705.72400	 23.70	
 11.889	155.445	  4.78101	  0.78086	  4.14155	  3.07272	  1.66186	 -0.13499	  5.07170	705.76703	 23.70	
 11.909	147.299	  4.78004	  0.88967	  4.01500	  3.31836	  1.44185	 -0.13868	  5.07064	705.66302	 23.70	
 11.902	139.148	  4.78391	  1.03552	  3.86039	  3.53932	  1.25938	 -0.14259	  5.06794	705.82397	 23.70	
 11.894	130.867	  4.79621	  1.21153	  3.67610	  3.73862	  1.10588	 -0.14810	  5.07483	705.87598	 23.70	
 11.897	122.732	  4.79114	  1.40357	  3.45932	  3.90739	  0.96343	 -0.15424	  5.07004	705.90698	 23.70	
 11.903	114.597	  4.79459	  1.61904	  3.23278	  4.04175	  0.85949	 -0.15889	  5.07086	705.74701	 23.70	
 11.893	106.346	  4.79539	  1.85694	  2.98539	  4.13597	  0.78777	 -0.15825	  5.07107	705.81201	 23.70	
 11.892	 98.155	  4.79874	  2.10830	  2.73456	  4.20129	  0.73900	 -0.16025	  5.07501	705.76202	 23.70	
 11.900	 90.000	  4.79821	  2.36436	  2.48150	  4.21633	  0.72887	 -0.15943	  5.07284	705.77802	 23.70	
 11.892	 81.845	  4.79341	  2.62656	  2.22741	  4.18510	  0.75032	 -0.15260	  5.06482	705.75800	 23.70	
 11.893	 73.654	  4.79725	  2.89207	  1.98849	  4.12725	  0.80113	 -0.14266	  5.06839	705.83502	 23.70	
 11.903	 65.403	  4.79301	  3.14851	  1.75164	  4.02171	  0.88230	 -0.13192	  5.06710	705.86798	 23.70	
 11.897	 57.268	  4.79090	  3.38395	  1.54139	  3.88673	  0.99319	 -0.13095	  5.07117	705.78900	 23.70	
 11.894	 49.133	  4.78759	  3.60126	  1.35262	  3.71583	  1.13188	 -0.13406	  5.06813	705.82397	 23.70	
 11.902	 40.852	  4.78830	  3.79470	  1.18580	  3.51123	  1.30698	 -0.14029	  5.07039	705.82703	 23.70	
 11.909	 32.701	  4.78423	  3.95787	  1.04379	  3.29086	  1.49687	 -0.14463	  5.07670	705.82397	 23.70	
 11.889	 24.555	  4.77744	  4.07871	  0.93723	  3.04460	  1.71503	 -0.14687	  5.06946	705.70001	 23.70	
 11.890	 16.390	  4.76843	  4.16921	  0.84202	  2.78099	  1.94686	 -0.15560	  5.06726	705.67999	 23.70	
 11.899	  8.217	  4.76023	  4.22175	  0.78105	  2.52636	  2.18422	 -0.15850	  5.07079	705.83698	 23.70	
 11.900	  0.000	  4.75471	  4.23130	  0.75508	  2.25193	  2.45019	 -0.15876	  5.06778	705.81403	 23.70	
 11.899	 -8.217	  4.75335	  4.20710	  0.76017	  2.00076	  2.71147	 -0.15168	  5.07697	705.77899	 23.70	
 11.890	-16.390	  4.73991	  4.13469	  0.79405	  1.74619	  2.96358	 -0.15029	  5.06504	705.83801	 23.70	
 11.889	-24.555	  4.72899	  4.02646	  0.85794	  1.50895	  3.21701	 -0.15354	  5.06466	705.80603	 23.70	
 11.909	-32.701	  4.73752	  3.89437	  0.95583	  1.30228	  3.45860	 -0.16028	  5.07676	705.81799	 23.70	
 11.902	-40.852	  4.72708	  3.71437	  1.08523	  1.11050	  3.67104	 -0.16251	  5.07191	705.86798	 23.70	
 11.894	-49.133	  4.72321	  3.50978	  1.24030	  0.94698	  3.86333	 -0.16669	  5.07176	705.89697	 23.70	
 11.897	-57.268	  4.71298	  3.27745	  1.41889	  0.80314	  4.02223	 -0.17431	  5.06576	705.90698	 23.70	
 11.903	-65.403	  4.71548	  3.03744	  1.62853	  0.69628	  4.15780	 -0.17776	  5.07338	705.79602	 23.70	
 11.893	-73.654	  4.70927	  2.77676	  1.85509	  0.61538	  4.24745	 -0.18243	  5.07173	705.81201	 23.70	
 11.892	-81.845	  4.71294	  2.51827	  2.10220	  0.57828	  4.29844	 -0.18729	  5.07414	705.86499	 23.70	
 11.900	-90.000	  4.71170	  2.25289	  2.35633	  0.56340	  4.31442	 -0.18786	  5.07378	705.90698	 23.70	
 11.892	-98.155	  4.71349	  1.99744	  2.61805	  0.58438	  4.28955	 -0.18109	  5.07600	705.76501	 23.70	
 11.893	-106.346	  4.70417	  1.74650	  2.87344	  0.62543	  4.22470	 -0.17146	  5.07242	705.84601	 23.70	
 11.903	-114.597	  4.71023	  1.51716	  3.13379	  0.70113	  4.13201	 -0.16125	  5.07634	705.85999	 23.70	
 11.897	-122.732	  4.70679	  1.30458	  3.37209	  0.81382	  3.99335	 -0.15180	  5.07047	705.81000	 23.70	
 11.894	-130.867	  4.70890	  1.12288	  3.59616	  0.95417	  3.82059	 -0.14965	  5.06982	705.85999	 23.70	
 11.902	-139.148	  4.70542	  0.95825	  3.78881	  1.12659	  3.61550	 -0.15126	  5.05916	705.85400	 23.70	
 11.909	-147.299	  4.72376	  0.83034	  3.96619	  1.32066	  3.40683	 -0.15311	  5.07737	705.92700	 23.70	
 11.889	-155.445	  4.72906	  0.73413	  4.09905	  1.53514	  3.16625	 -0.15247	  5.07097	705.86798	 23.70	
 11.890	-163.610	  4.73544	  0.66255	  4.20198	  1.77594	  2.90885	 -0.15235	  5.06914	705.83801	 23.70	
 11.899	-171.783	  4.74389	  0.62314	  4.26809	  2.02383	  2.64887	 -0.15372	  5.07021	705.75598	 23.70	
 11.900	180.000	  4.75573	  0.61482	  4.29289	  2.28706	  2.38901	 -0.15105	  5.07253	705.86499	 23.70	
 13.600	180.000	  4.63495	  0.30601	  4.45417	  2.19042	  2.28440	 -0.19307	  5.07007	705.86499	 23.70	
 13.608	-172.853	  4.63361	  0.31101	  4.44274	  1.93343	  2.54800	 -0.19737	  5.08186	705.83398	 23.70	
 13.611	-165.583	  4.61393	  0.34265	  4.37760	  1.67607	  2.80258	 -0.19950	  5.06816	705.80603	 23.70	
 13.601	-158.353	  4.60768	  0.40347	  4.28811	  1.43492	  3.06283	 -0.19971	  5.07104	705.88300	 23.70	
 13.609	-151.210	  4.60198	  0.48767	  4.16954	  1.21398	  3.30971	 -0.19825	  5.07440	705.76398	 23.70	
 13.611	-143.999	  4.59667	  0.59876	  4.02033	  1.01122	  3.54216	 -0.19404	  5.07603	705.87598	 23.70	
 13.601	-136.825	  4.58677	  0.73524	  3.83612	  0.82446	  3.75454	 -0.18768	  5.07175	705.82397	 23.70	
 13.596	-129.640	  4.58354	  0.90166	  3.62677	  0.66497	  3.94979	 -0.18493	  5.07279	705.83801	 23.70	
