FileType=PCF
NHL=14
Date=08/31/17	09:55:23
Facility=APL
Serial=16328-11
Customer=NASA
NP=6
Mach=0.250000
Calibration=1:1
CalPts=490
TstPts=95
PortNumbering=AP Standard
Units=Torr C m/s kg/m^3 deg mm 
Theta[deg]	Phi[deg]	P1[Torr]	P2[Torr]	P3[Torr]	P4[Torr]	P5[Torr]	P6[Torr]	Pt[Torr]	Ps[Abs,Torr]	Ts[C]	
  0.000	  0.000	 30.10031	 15.82567	 16.22671	 15.74156	 16.41312	  0.20596	 30.07822	706.51898	 24.70	
  1.691	128.401	 30.11636	 14.87725	 17.22701	 16.92327	 15.12203	  0.20164	 30.10423	706.43701	 24.70	
  1.692	 77.194	 30.09765	 16.14703	 15.92187	 17.20037	 14.83219	  0.20017	 30.07996	706.58002	 24.70	
  1.699	 26.182	 30.12044	 17.14618	 14.84909	 16.40260	 15.68602	  0.19833	 30.10136	706.63702	 24.70	
  1.699	-26.182	 30.10046	 17.13260	 14.75087	 15.01087	 17.09521	  0.18284	 30.08881	706.46301	 24.70	
  1.692	-77.194	 30.09054	 16.06433	 15.77286	 14.21216	 17.87062	  0.17874	 30.07729	706.58301	 24.70	
  1.691	-128.401	 30.09834	 14.79851	 17.09169	 14.49222	 17.59087	  0.19131	 30.08700	706.57703	 24.70	
  1.700	180.000	 30.08889	 14.23678	 17.77479	 15.68074	 16.34354	  0.19872	 30.07621	706.57397	 24.70	
  3.400	180.000	 30.03002	 12.56770	 19.21874	 15.56537	 16.17885	  0.14757	 30.07065	706.50800	 24.70	
  3.388	-152.325	 30.01120	 12.85141	 18.78178	 14.13951	 17.63067	  0.12893	 30.06121	706.52698	 24.60	
  3.397	-124.529	 30.00248	 13.75938	 17.72101	 12.93145	 18.75753	  0.11997	 30.06992	706.56299	 24.60	
  3.399	-96.763	 29.97708	 15.17766	 16.27238	 12.40164	 19.27114	  0.09793	 30.04780	706.58899	 24.60	
  3.394	-69.283	 29.99794	 16.61548	 14.85706	 12.61056	 19.10261	  0.09478	 30.06077	706.51801	 24.60	
  3.400	-41.398	 30.00175	 17.79593	 13.65559	 13.42685	 18.28776	  0.09889	 30.05853	706.57703	 24.60	
  3.401	-14.021	 30.04925	 18.58930	 13.06041	 14.79040	 17.02852	  0.11329	 30.09209	706.63397	 24.60	
  3.401	 14.021	 30.02537	 18.59145	 13.12744	 16.26850	 15.48601	  0.12736	 30.04160	706.59802	 24.60	
  3.400	 41.398	 30.04243	 17.92058	 13.83567	 17.59579	 14.14977	  0.14294	 30.05080	706.58002	 24.60	
  3.394	 69.283	 30.04020	 16.77095	 15.08579	 18.44750	 13.33605	  0.15149	 30.04226	706.59497	 24.60	
  3.399	 96.763	 30.03152	 15.36659	 16.51891	 18.64346	 13.12534	  0.15102	 30.03613	706.64502	 24.60	
  3.397	124.529	 30.03710	 13.89302	 17.90957	 18.12003	 13.59297	  0.14940	 30.04278	706.73199	 24.60	
  3.388	152.325	 30.03695	 12.95739	 18.88100	 17.01162	 14.67597	  0.14487	 30.05638	706.74402	 24.60	
  5.099	161.165	 29.90543	 11.16478	 20.36969	 16.87494	 14.39684	  0.04866	 30.05998	706.67798	 24.60	
  5.109	142.013	 29.90647	 11.88194	 19.68292	 18.20781	 13.09722	  0.02716	 30.04249	706.63397	 24.60	
  5.095	123.033	 29.96751	 13.00819	 18.59721	 19.20453	 12.20603	  0.05145	 30.08862	706.74701	 24.60	
  5.105	104.191	 29.97664	 14.44987	 17.18294	 19.85195	 11.65542	  0.04704	 30.08476	706.71802	 24.60	
  5.093	 85.207	 29.93969	 15.93368	 15.65191	 19.93509	 11.58375	  0.04827	 30.03830	706.70502	 24.60	
  5.104	 66.290	 29.96470	 17.38971	 14.20762	 19.55233	 11.93825	  0.05201	 30.07925	706.66803	 24.60	
  5.094	 47.331	 29.96198	 18.65184	 12.91394	 18.66482	 12.70823	  0.05379	 30.08562	706.62000	 24.60	
  5.089	 28.397	 29.90152	 19.56391	 11.95970	 17.49831	 13.81596	  0.04216	 30.04106	706.61200	 24.60	
  5.096	  9.576	 29.90854	 20.08743	 11.40415	 16.11436	 15.26352	  0.02781	 30.07380	706.63397	 24.60	
  5.096	 -9.576	 29.86978	 20.03014	 11.33219	 14.56809	 16.83542	  0.01077	 30.06071	706.62598	 24.60	
  5.089	-28.397	 29.87029	 19.47861	 11.76550	 13.07848	 18.25285	 -0.00763	 30.08166	706.74103	 24.60	
  5.094	-47.331	 29.84714	 18.43267	 12.62800	 11.89089	 19.32832	 -0.06855	 30.07502	706.76099	 24.50	
  5.104	-66.290	 29.81978	 17.12354	 13.81910	 11.06528	 20.23402	 -0.06916	 30.06626	706.69000	 24.50	
  5.093	-85.207	 29.76872	 15.67441	 15.21905	 10.70930	 20.54518	 -0.04149	 30.01704	706.61200	 24.50	
  5.105	-104.191	 29.80494	 14.16756	 16.81492	 10.81549	 20.42624	 -0.07518	 30.06229	706.59100	 24.50	
  5.095	-123.033	 29.82919	 12.78627	 18.25198	 11.43764	 19.78651	  0.01137	 30.07524	706.66498	 24.50	
  5.109	-142.013	 29.85222	 11.74218	 19.48718	 12.45650	 18.82571	  0.02079	 30.09142	706.71600	 24.50	
  5.099	-161.165	 29.83523	 11.08086	 20.27168	 13.77079	 17.42806	  0.03857	 30.05498	706.79999	 24.50	
  5.100	180.000	 29.85076	 10.89071	 20.55312	 15.35478	 15.92555	  0.02595	 30.03641	706.69000	 24.50	
  6.800	180.000	 29.58764	  9.06906	 21.89347	 15.04496	 15.60112	 -0.18267	 30.02998	706.79498	 24.50	
  6.796	-166.229	 29.60198	  9.22148	 21.69997	 13.51478	 17.10957	 -0.18033	 30.07541	706.84698	 24.50	
  6.808	-152.311	 29.51273	  9.62949	 21.06692	 12.09035	 18.51293	 -0.19866	 30.03315	706.64502	 24.50	
  6.795	-138.383	 29.50716	 10.43435	 20.14741	 10.88808	 19.67556	 -0.17502	 30.05251	706.71600	 24.50	
  6.792	-124.591	 29.49541	 11.48387	 18.92769	  9.90818	 20.72994	 -0.22353	 30.04762	706.60602	 24.50	
  6.787	-110.754	 29.48337	 12.72924	 17.52503	  9.24717	 21.46269	 -0.26197	 30.04491	706.72601	 24.50	
  6.800	-96.985	 29.51088	 14.10884	 16.06801	  8.89824	 21.85828	 -0.30426	 30.07103	706.79498	 24.50	
  6.800	-83.015	 29.50737	 15.71130	 14.51888	  8.89424	 21.87560	 -0.29062	 30.06041	706.61603	 24.50	
  6.787	-69.246	 29.52567	 17.06311	 13.14635	  9.24266	 21.55385	 -0.32001	 30.07493	706.84198	 24.50	
  6.792	-55.409	 29.51125	 18.42759	 11.88129	  9.89420	 20.82905	 -0.29785	 30.03891	706.74902	 24.50	
  6.795	-41.617	 29.55122	 19.66291	 10.89471	 10.88087	 19.78758	 -0.28424	 30.06846	706.71301	 24.50	
  6.808	-27.689	 29.54666	 20.57758	 10.13391	 12.08995	 18.63100	 -0.24496	 30.03717	706.69299	 24.50	
  6.796	-13.771	 29.55842	 21.14414	  9.71786	 13.45619	 17.23845	 -0.21394	 30.01590	706.84003	 24.50	
  6.800	  0.000	 29.61307	 21.40476	  9.60401	 15.02132	 15.78377	 -0.21220	 30.05495	706.76898	 24.50	
  6.796	 13.771	 29.65223	 21.27249	  9.83295	 16.50345	 14.28005	 -0.17639	 30.05131	706.63397	 24.50	
  6.808	 27.689	 29.66800	 20.78323	 10.37085	 17.91256	 12.91468	 -0.17780	 30.04727	706.72101	 24.50	
  6.795	 41.617	 29.68650	 19.94175	 11.19944	 19.06927	 11.77862	 -0.09910	 30.04328	706.76099	 24.50	
  6.792	 55.409	 29.70532	 18.78555	 12.28471	 20.13840	 10.83538	 -0.13810	 30.04422	706.61603	 24.50	
  6.787	 69.246	 29.72809	 17.46321	 13.62399	 20.88495	 10.16479	 -0.13899	 30.04885	706.67297	 24.50	
  6.800	 83.015	 29.73503	 16.06642	 15.04128	 21.28948	  9.77537	 -0.17750	 30.04945	706.77802	 24.50	
  6.800	 96.985	 29.72138	 14.58401	 16.53486	 21.29956	  9.74151	 -0.11790	 30.04068	706.79102	 24.50	
  6.787	110.754	 29.72889	 13.12071	 17.97770	 20.92525	 10.09730	 -0.16414	 30.06128	706.74402	 24.50	
  6.792	124.591	 29.69968	 11.84339	 19.27656	 20.18322	 10.73515	 -0.19030	 30.03225	706.71802	 24.50	
  6.795	138.383	 29.66953	 10.71243	 20.39138	 19.10715	 11.66236	 -0.17034	 30.02274	706.89301	 24.50	
  6.808	152.311	 29.65554	  9.82829	 21.26723	 17.92841	 12.78877	 -0.15382	 30.02883	706.79401	 24.50	
  6.796	166.229	 29.60400	  9.29656	 21.73650	 16.50488	 14.06647	 -0.16953	 30.01640	706.83600	 24.50	
  8.491	168.704	 29.27145	  7.24673	 23.02779	 16.25811	 13.66047	 -0.39210	 30.04318	706.81702	 24.50	
  8.502	157.493	 29.29143	  7.74173	 22.62680	 17.68928	 12.30993	 -0.36758	 30.02472	706.79199	 24.50	
  8.494	146.194	 29.33330	  8.54882	 21.94819	 18.91274	 11.07967	 -0.36945	 30.04592	706.79401	 24.50	
  8.495	135.039	 29.36650	  9.52200	 20.98975	 20.18976	  9.95684	 -0.39642	 30.05125	706.78601	 24.50	
  8.487	123.723	 29.34575	 10.65762	 19.77134	 21.20490	  8.99706	 -0.42267	 30.02814	706.75702	 24.50	
  8.492	112.575	 29.41387	 12.00614	 18.46379	 21.96605	  8.36946	 -0.43140	 30.07640	706.70502	 24.50	
  8.510	101.220	 29.36170	 13.41995	 16.95939	 22.38325	  7.94466	 -0.43430	 30.01138	706.82800	 24.50	
  8.500	 90.000	 29.40970	 14.99825	 15.49370	 22.56410	  7.80185	 -0.42061	 30.04288	706.68701	 24.50	
  8.510	 78.780	 29.38489	 16.48133	 13.98224	 22.36774	  7.95573	 -0.40070	 30.01761	706.81097	 24.50	
  8.492	 67.425	 29.38925	 17.86874	 12.56441	 21.87903	  8.41488	 -0.35432	 30.02916	706.79199	 24.50	
  8.487	 56.277	 29.36048	 19.23897	 11.25612	 21.16784	  9.08235	 -0.34894	 30.02524	706.65302	 24.50	
  8.495	 44.961	 29.36172	 20.46543	 10.12699	 20.13398	 10.06702	 -0.37608	 30.04019	706.71301	 24.50	
  8.494	 33.806	 29.31547	 21.40210	  9.17278	 18.88248	 11.20027	 -0.38938	 30.02303	706.88501	 24.50	
  8.502	 22.507	 29.30575	 22.14943	  8.50234	 17.63530	 12.48081	 -0.40646	 30.04334	706.86401	 24.50	
  8.491	 11.296	 29.25338	 22.57827	  8.01664	 16.20416	 13.81194	 -0.43366	 30.02682	706.64301	 24.50	
  8.500	  0.000	 29.28737	 22.73858	  7.80307	 14.65835	 15.44706	 -0.44266	 30.10411	706.77100	 24.50	
  8.491	-11.296	 29.21214	 22.48427	  7.87684	 13.02923	 16.96567	 -0.44808	 30.04001	706.78003	 24.50	
  8.502	-22.507	 29.20036	 21.97457	  8.20736	 11.62801	 18.38253	 -0.45436	 30.06285	706.68103	 24.50	
  8.494	-33.806	 29.15220	 21.15632	  8.77618	 10.27497	 19.62974	 -0.49270	 30.04844	706.76398	 24.50	
  8.495	-44.961	 29.12505	 20.13356	  9.61166	  9.11061	 20.88351	 -0.54332	 30.05431	706.71002	 24.50	
  8.487	-56.277	 29.09851	 18.84755	 10.68155	  8.19670	 21.81604	 -0.57611	 30.03500	706.72302	 24.50	
  8.492	-67.425	 29.10328	 17.48995	 11.94571	  7.48770	 22.54986	 -0.59139	 30.05106	706.78802	 24.50	
  8.510	-78.780	 29.09217	 16.01583	 13.37010	  6.97416	 23.01253	 -0.60663	 30.05944	706.76001	 24.50	
  8.500	-90.000	 29.06797	 14.51309	 14.86794	  6.82645	 23.13138	 -0.58412	 30.04496	706.80298	 24.50	
  8.510	-101.220	 29.07691	 12.98970	 16.41323	  6.98849	 22.95517	 -0.54319	 30.04982	706.91302	 24.50	
  8.492	-112.575	 29.08090	 11.57390	 17.93539	  7.38375	 22.45313	 -0.48683	 30.04994	706.90900	 24.50	
  8.487	-123.723	 29.08876	 10.30813	 19.31138	  8.11950	 21.70210	 -0.44770	 30.04709	706.78302	 24.50	
  8.495	-135.039	 29.10303	  9.13350	 20.60472	  9.12292	 20.72636	 -0.44101	 30.06007	706.93799	 24.50	
  8.494	-146.194	 29.13702	  8.25913	 21.66278	 10.29297	 19.47692	 -0.42699	 30.06540	706.87299	 24.40	
  8.502	-157.493	 29.15215	  7.62338	 22.45245	 11.62990	 18.22467	 -0.40939	 30.04882	706.88702	 24.50	
  8.491	-168.704	 29.14769	  7.22735	 22.90862	 13.02235	 16.75550	 -0.40581	 30.00659	706.91803	 24.40	
  8.500	180.000	 29.23389	  6.99169	 23.16508	 14.69132	 15.23563	 -0.40686	 30.04893	706.84698	 24.40	
 10.200	180.000	 28.75275	  5.26376	 24.31351	 14.13361	 14.75061	 -0.65589	 30.04378	706.88501	 24.40	
 10.191	-170.497	 28.71393	  5.36807	 24.13589	 12.59205	 16.33600	 -0.66507	 30.04986	706.92102	 24.50	
 10.210	-161.034	 28.65543	  5.61847	 23.71375	 11.10908	 17.83982	 -0.65047	 30.04269	706.87799	 24.50	
 10.194	-151.526	 28.60494	  6.07478	 23.01578	  9.67970	 19.22919	 -0.66803	 30.03621	706.91302	 24.50	
 10.190	-142.105	 28.58206	  6.75317	 22.09144	  8.30389	 20.46231	 -0.66660	 30.04884	706.80298	 24.50	
 10.215	-132.646	 28.53743	  7.71559	 20.97141	  7.13828	 21.64341	 -0.66267	 30.03726	706.84003	 24.50	
 10.203	-123.092	 28.53687	  8.93624	 19.67104	  6.26816	 22.65335	 -0.67076	 30.04743	706.72998	 24.40	
 10.192	-113.678	 28.51398	 10.27843	 18.22218	  5.61944	 23.43462	 -0.72215	 30.02525	706.82599	 24.40	
 10.208	-104.249	 28.53024	 11.70979	 16.70983	  5.17654	 24.02395	 -0.80301	 30.05128	706.75702	 24.40	
 10.210	-94.801	 28.49624	 13.17872	 15.13075	  4.93440	 24.29769	 -0.85661	 30.02327	706.76801	 24.40	
 10.210	-85.199	 28.53178	 14.72671	 13.58510	  4.92784	 24.35588	 -0.87497	 30.05168	706.82300	 24.40	
 10.208	-75.751	 28.51743	 16.27964	 12.08613	  5.16137	 24.07078	 -0.87925	 30.02289	706.79999	 24.40	
 10.192	-66.322	 28.54311	 17.71782	 10.70579	  5.62451	 23.54659	 -0.86528	 30.02778	706.84698	 24.40	
 10.203	-56.908	 28.59461	 19.16149	  9.46207	  6.26176	 22.83848	 -0.83033	 30.06219	706.87000	 24.40	
 10.215	-47.354	 28.59763	 20.49893	  8.31357	  7.10926	 21.82615	 -0.80166	 30.04258	706.86401	 24.40	
 10.190	-37.895	 28.57498	 21.56837	  7.40891	  8.38612	 20.64081	 -0.74807	 29.98881	706.77698	 24.40	
 10.194	-28.474	 28.70033	 22.59323	  6.73492	  9.69926	 19.43918	 -0.70198	 30.08292	706.83301	 24.40	
 10.210	-18.966	 28.69674	 23.29399	  6.22941	 11.08658	 18.01834	 -0.68460	 30.05132	706.79498	 24.40	
 10.191	 -9.503	 28.72498	 23.74237	  5.96391	 12.55516	 16.53662	 -0.69086	 30.03674	706.79999	 24.40	
 10.200	  0.000	 28.75502	 23.91139	  5.90583	 14.05031	 14.99949	 -0.69850	 30.03628	706.82599	 24.40	
 10.191	  9.503	 28.76038	 23.81837	  6.09457	 15.76310	 13.38730	 -0.69316	 30.01080	706.80798	 24.40	
 10.210	 18.966	 28.79358	 23.45377	  6.50111	 17.25198	 11.96496	 -0.68098	 30.01769	706.96802	 24.40	
 10.194	 28.474	 28.81688	 22.82605	  7.09251	 18.65389	 10.59427	 -0.64564	 30.01242	706.98798	 24.40	
 10.190	 37.895	 28.87799	 21.99046	  7.90292	 19.92345	  9.12026	 -0.62475	 30.04819	706.85400	 24.40	
 10.215	 47.354	 28.90849	 20.93799	  8.90483	 21.14246	  8.02510	 -0.60443	 30.06595	706.77100	 24.40	
 10.203	 56.908	 28.92141	 19.69166	 10.09117	 22.09433	  7.20576	 -0.57270	 30.03792	706.90399	 24.40	
 10.192	 66.322	 28.96587	 18.32556	 11.39308	 22.91472	  6.54226	 -0.58452	 30.07146	706.76300	 24.40	
 10.208	 75.751	 28.94289	 16.87578	 12.79605	 23.45073	  6.04739	 -0.64374	 30.03304	706.91998	 24.40	
 10.210	 85.199	 28.93107	 15.38015	 14.25832	 23.76063	  5.74974	 -0.69812	 30.02880	706.90100	 24.40	
 10.210	 94.801	 28.94797	 13.80312	 15.81544	 23.77923	  5.78284	 -0.72441	 30.03839	706.85901	 24.40	
 10.208	104.249	 28.89239	 12.29297	 17.28959	 23.50009	  5.92756	 -0.73615	 29.99659	706.77698	 24.40	
 10.192	113.678	 28.94675	 10.85460	 18.81373	 22.98840	  6.42919	 -0.71351	 30.06509	706.74902	 24.40	
 10.203	123.092	 28.89566	  9.47869	 20.10605	 22.19151	  7.05006	 -0.68511	 30.01981	706.90900	 24.40	
 10.215	132.646	 28.88568	  8.20186	 21.38281	 21.19775	  7.91867	 -0.65206	 30.02650	706.87799	 24.40	
 10.190	142.105	 28.87374	  7.10747	 22.43704	 20.00354	  9.16616	 -0.62366	 30.03247	706.80603	 24.40	
 10.194	151.526	 28.83801	  6.33564	 23.22915	 18.71875	 10.47632	 -0.60165	 30.01044	706.85797	 24.40	
 10.210	161.034	 28.84448	  5.73507	 23.88771	 17.32744	 11.82923	 -0.61580	 30.04916	706.94598	 24.40	
 10.191	170.497	 28.79257	  5.37775	 24.21640	 15.85198	 13.19107	 -0.64262	 30.04324	706.90100	 24.40	
 11.899	171.783	 28.23373	  3.56143	 25.31489	 15.34217	 12.66807	 -0.88416	 30.06025	707.03003	 24.40	
 11.890	163.610	 28.25020	  3.86421	 24.99331	 16.84370	 11.24825	 -0.84827	 30.03690	706.89301	 24.40	
 11.889	155.445	 28.29022	  4.38076	 24.47649	 18.26994	  9.83884	 -0.81420	 30.03195	706.90997	 24.40	
 11.909	147.299	 28.30042	  4.99213	 23.77004	 19.63671	  8.29090	 -0.82969	 30.04541	706.91302	 24.40	
 11.902	139.148	 28.30177	  5.84105	 22.81432	 20.91472	  7.12561	 -0.86369	 30.02388	706.95398	 24.40	
 11.894	130.867	 28.37369	  6.90317	 21.74433	 22.08670	  6.09790	 -0.90049	 30.06152	706.89600	 24.40	
 11.897	122.732	 28.34817	  8.16296	 20.48213	 23.07685	  5.30795	 -0.93437	 30.03323	706.93402	 24.50	
 11.903	114.597	 28.37105	  9.55238	 19.13111	 23.90024	  4.67199	 -0.97134	 30.05123	706.88501	 24.50	
 11.893	106.346	 28.35666	 11.05345	 17.62440	 24.45400	  4.27196	 -1.00013	 30.02105	706.98901	 24.50	
 11.892	 98.155	 28.37062	 12.57427	 16.11472	 24.81649	  4.04669	 -1.00171	 30.02606	706.89502	 24.50	
 11.900	 90.000	 28.36331	 14.05898	 14.58075	 24.94685	  3.98309	 -0.98778	 30.01995	706.93500	 24.50	
 11.892	 81.845	 28.37768	 15.64854	 13.08479	 24.78212	  4.11919	 -0.93713	 30.03015	706.94598	 24.50	
 11.893	 73.654	 28.37055	 17.11535	 11.61992	 24.38618	  4.43250	 -0.86880	 30.01898	707.00500	 24.40	
 11.903	 65.403	 28.39305	 18.63711	 10.19737	 23.82481	  4.84629	 -0.79686	 30.05304	707.11499	 24.40	
 11.897	 57.268	 28.34671	 20.00280	  8.93835	 22.93989	  5.44211	 -0.77484	 30.00528	707.04700	 24.40	
 11.894	 49.133	 28.37801	 21.27783	  7.79954	 21.97163	  6.30611	 -0.80115	 30.06529	707.09802	 24.40	
 11.902	 40.852	 28.33187	 22.41491	  6.71146	 20.82374	  7.36704	 -0.85346	 30.04552	707.15198	 24.40	
 11.909	 32.701	 28.28986	 23.36312	  5.81156	 19.53323	  8.49053	 -0.87751	 30.04518	706.90601	 24.40	
 11.889	 24.555	 28.23192	 24.09427	  5.11686	 18.20738	  9.76443	 -0.90346	 30.01985	707.02197	 24.40	
 11.890	 16.390	 28.21174	 24.63070	  4.59592	 16.75810	 11.43042	 -0.92050	 30.01274	707.04401	 24.40	
 11.899	  8.217	 28.20599	 24.95908	  4.26458	 15.24935	 12.89924	 -0.93494	 30.04040	707.14099	 24.40	
 11.900	  0.000	 28.14203	 25.02517	  4.07077	 13.52735	 14.41841	 -0.92344	 30.02291	707.14899	 24.40	
 11.899	 -8.217	 28.10725	 24.86236	  4.11128	 11.97892	 16.02287	 -0.90806	 30.02361	707.24200	 24.40	
 11.890	-16.390	 28.08416	 24.43802	  4.37121	 10.49350	 17.56510	 -0.89142	 30.01921	707.11499	 24.40	
 11.889	-24.555	 28.04746	 23.82904	  4.76076	  9.05050	 18.97381	 -0.88536	 30.02912	707.13098	 24.40	
 11.909	-32.701	 28.00248	 22.98468	  5.29726	  7.51685	 20.28702	 -0.91374	 30.02590	707.13202	 24.40	
 11.902	-40.852	 27.97705	 21.93684	  6.07512	  6.37419	 21.55772	 -0.95971	 30.02002	707.08600	 24.40	
 11.894	-49.133	 28.00034	 20.75660	  7.05820	  5.43484	 22.72962	 -0.99472	 30.06292	707.03699	 24.40	
 11.897	-57.268	 27.94125	 19.42129	  8.12869	  4.60854	 23.67660	 -1.04243	 30.02425	706.92102	 24.40	
 11.903	-65.403	 27.89957	 17.93010	  9.40102	  3.94189	 24.43761	 -1.07335	 30.01052	707.05298	 24.40	
 11.893	-73.654	 27.88808	 16.42805	 10.78116	  3.45873	 24.99012	 -1.08543	 30.01272	707.02301	 24.40	
 11.892	-81.845	 27.89117	 14.93575	 12.26549	  3.17550	 25.32963	 -1.08719	 30.03071	707.11499	 24.40	
 11.900	-90.000	 27.88751	 13.38707	 13.78833	  3.09000	 25.45206	 -1.08491	 30.03158	707.04700	 24.40	
 11.892	-98.155	 27.91045	 11.90009	 15.37292	  3.20590	 25.32185	 -1.07672	 30.05280	707.12598	 24.40	
 11.893	-106.346	 27.89190	 10.36383	 16.92600	  3.48554	 24.91510	 -1.02577	 30.04890	707.02301	 24.40	
 11.903	-114.597	 27.84451	  8.89735	 18.41859	  3.92404	 24.29285	 -0.93358	 30.00709	707.17200	 24.40	
 11.897	-122.732	 27.86671	  7.49526	 19.86776	  4.60826	 23.48611	 -0.88628	 30.01545	707.13098	 24.40	
 11.894	-130.867	 27.90450	  6.40290	 21.19981	  5.45889	 22.48586	 -0.87357	 30.03001	707.00800	 24.40	
 11.902	-139.148	 27.94473	  5.50232	 22.42871	  6.46801	 21.32943	 -0.89429	 30.04757	706.92401	 24.40	
 11.909	-147.299	 27.95424	  4.74491	 23.39211	  7.58812	 20.02839	 -0.91525	 30.01707	706.97400	 24.40	
 11.889	-155.445	 27.99935	  4.14557	 24.23114	  8.90981	 18.75943	 -0.92451	 30.03260	707.13800	 24.40	
 11.890	-163.610	 28.02585	  3.75056	 24.82182	 10.50441	 17.29155	 -0.92899	 30.01110	707.18500	 24.40	
 11.899	-171.783	 28.09442	  3.50833	 25.22620	 12.04016	 15.76297	 -0.92958	 30.03904	706.94897	 24.40	
 11.900	180.000	 28.09751	  3.41323	 25.34300	 13.56394	 14.18912	 -0.91340	 29.99574	707.04999	 24.40	
 13.600	180.000	 27.44497	  1.56480	 26.35017	 12.97923	 13.50891	 -1.14775	 30.03795	707.02197	 24.40	
 13.608	-172.853	 27.39168	  1.64494	 26.22089	 11.39915	 15.11472	 -1.16894	 30.04059	707.09198	 24.40	
 13.611	-165.583	 27.30760	  1.88090	 25.86164	  9.71405	 16.66572	 -1.16585	 30.01160	707.04199	 24.40	
 13.601	-158.353	 27.25538	  2.23192	 25.32991	  8.23479	 18.16268	 -1.16299	 30.00538	707.11298	 24.40	
 13.609	-151.210	 27.25023	  2.71853	 24.62726	  6.98121	 19.49438	 -1.13810	 30.04924	707.10999	 24.40	
 13.611	-143.999	 27.20567	  3.34770	 23.72731	  5.76294	 20.86265	 -1.12801	 30.03713	706.99103	 24.40	
 13.601	-136.825	 27.18506	  4.15012	 22.65578	  4.67742	 22.13171	 -1.08569	 30.07032	707.03900	 24.40	
 13.596	-129.640	 27.13743	  5.08018	 21.41471	  3.70108	 23.25846	 -1.05536	 30.03718	707.01599	 24.40	
