FileType=PCF
NHL=14
Date=08/29/17	18:19:24
Facility=APL
Serial=16328-16
Customer=NASA
NP=6
Mach=0.200000
Calibration=1:1
CalPts=490
TstPts=95
PortNumbering=AP Standard
Units=Torr C m/s kg/m^3 deg mm 
Theta[deg]	Phi[deg]	P1[Torr]	P2[Torr]	P3[Torr]	P4[Torr]	P5[Torr]	P6[Torr]	Pt[Torr]	Ps[Abs,Torr]	Ts[C]	
  0.000	  0.000	 19.56089	 10.52003	 10.34394	 10.30644	 10.79135	  0.15367	 19.52578	705.54498	 24.80	
  1.691	128.401	 19.52759	  9.89319	 10.90866	 11.05487	 10.01385	  0.14969	 19.49861	705.35400	 24.80	
  1.692	 77.194	 19.53798	 10.72532	 10.08130	 11.26116	  9.82502	  0.14270	 19.51079	705.34198	 24.80	
  1.699	 26.182	 19.50987	 11.36992	  9.39511	 10.71267	 10.29684	  0.13354	 19.48372	705.34003	 24.80	
  1.699	-26.182	 19.53943	 11.36178	  9.41993	  9.82860	 11.15608	  0.13080	 19.51108	705.37097	 24.80	
  1.692	-77.194	 19.53802	 10.67260	 10.10088	  9.30887	 11.69418	  0.12871	 19.52139	705.34998	 24.80	
  1.691	-128.401	 19.55923	  9.87237	 10.92375	  9.50121	 11.53665	  0.13948	 19.53650	705.27698	 24.80	
  1.700	180.000	 19.54049	  9.51261	 11.29220	 10.26338	 10.77420	  0.14114	 19.51585	705.44702	 24.80	
  3.400	180.000	 19.52369	  8.50769	 12.22674	 10.16955	 10.70320	  0.10414	 19.52414	705.37299	 24.80	
  3.388	-152.325	 19.52906	  8.70627	 11.97223	  9.28693	 11.59153	  0.09710	 19.53540	705.46600	 24.80	
  3.397	-124.529	 19.50183	  9.25106	 11.32380	  8.62236	 12.29148	  0.08911	 19.52296	705.35901	 24.80	
  3.399	-96.763	 19.49780	 10.09726	 10.44363	  8.31500	 12.60355	  0.04723	 19.51593	705.29401	 24.80	
  3.394	-69.283	 19.47983	 11.02507	  9.51227	  8.47272	 12.47140	  0.06025	 19.50549	705.26300	 24.80	
  3.400	-41.398	 19.48580	 11.84495	  8.80795	  8.97503	 11.90124	  0.05405	 19.50471	705.39600	 24.80	
  3.401	-14.021	 19.49214	 12.30593	  8.41262	  9.69512	 11.09382	  0.08427	 19.50882	705.44000	 24.80	
  3.401	 14.021	 19.51723	 12.34060	  8.42750	 10.71935	 10.15888	  0.08833	 19.52792	705.35901	 24.80	
  3.400	 41.398	 19.47923	 11.90738	  8.75146	 11.51598	  9.37553	  0.09683	 19.48203	705.33698	 24.80	
  3.394	 69.283	 19.50949	 11.13665	  9.52876	 12.06208	  8.88482	  0.10208	 19.50645	705.28802	 24.80	
  3.399	 96.763	 19.49556	 10.20920	 10.44081	 12.16784	  8.78960	  0.09815	 19.49194	705.38800	 24.80	
  3.397	124.529	 19.50871	  9.34571	 11.32906	 11.82446	  9.12918	  0.10542	 19.50357	705.40399	 24.80	
  3.388	152.325	 19.51776	  8.73899	 11.97875	 11.11345	  9.82527	  0.10451	 19.51249	705.39001	 24.80	
  5.099	161.165	 19.42498	  7.60533	 12.93534	 11.00284	  9.62763	  0.00899	 19.50415	705.29901	 24.80	
  5.109	142.013	 19.42963	  8.04960	 12.46178	 11.89070	  8.78463	  0.01133	 19.51733	705.43298	 24.80	
  5.095	123.033	 19.41551	  8.72397	 11.70941	 12.55002	  8.19012	  0.00493	 19.49068	705.37000	 24.80	
  5.105	104.191	 19.44113	  9.59774	 10.80880	 12.99786	  7.82085	  0.00649	 19.52205	705.33698	 24.80	
  5.093	 85.207	 19.40936	 10.53446	  9.83781	 13.06863	  7.72347	  0.01061	 19.49384	705.31897	 24.80	
  5.104	 66.290	 19.43273	 11.50822	  8.91263	 12.83153	  7.92868	  0.01275	 19.51853	705.33698	 24.80	
  5.094	 47.331	 19.39856	 12.32964	  8.17841	 12.24564	  8.38774	  0.00677	 19.49334	705.29199	 24.80	
  5.089	 28.397	 19.42930	 12.95531	  7.68452	 11.49536	  9.10407	  0.00210	 19.53358	705.34802	 24.80	
  5.096	  9.576	 19.40080	 13.25711	  7.37213	 10.55148	  9.96917	 -0.00083	 19.51153	705.43500	 24.80	
  5.096	 -9.576	 19.41008	 13.24338	  7.38702	  9.53362	 10.94243	 -0.02223	 19.53220	705.45203	 24.70	
  5.089	-28.397	 19.39442	 12.89629	  7.66551	  8.72369	 11.85594	 -0.03748	 19.52680	705.45203	 24.80	
  5.094	-47.331	 19.38939	 12.23753	  8.15623	  8.00475	 12.67117	 -0.06277	 19.52391	705.43298	 24.70	
  5.104	-66.290	 19.37934	 11.36707	  8.88924	  7.46951	 13.26294	 -0.07076	 19.52156	705.51099	 24.70	
  5.093	-85.207	 19.36456	 10.39278	  9.76891	  7.25348	 13.52184	 -0.07093	 19.50434	705.48798	 24.80	
  5.105	-104.191	 19.39438	  9.43600	 10.76786	  7.34220	 13.46490	 -0.05660	 19.53397	705.45697	 24.80	
  5.095	-123.033	 19.38340	  8.59107	 11.66453	  7.64050	 13.05933	 -0.03745	 19.52477	705.48297	 24.80	
  5.109	-142.013	 19.39854	  7.93749	 12.43171	  8.25485	 12.38741	 -0.02513	 19.52630	705.44897	 24.80	
  5.099	-161.165	 19.39469	  7.54168	 12.91836	  9.07632	 11.49032	 -0.01345	 19.50916	705.48901	 24.70	
  5.100	180.000	 19.38178	  7.42060	 13.08630	 10.01631	 10.52645	  0.03146	 19.47890	705.41199	 24.80	
  6.800	180.000	 19.22544	  6.30086	 13.97047	  9.80594	 10.34995	 -0.12041	 19.49256	705.51898	 24.80	
  6.796	-166.229	 19.23368	  6.37791	 13.85413	  8.87977	 11.29520	 -0.12532	 19.50600	705.45203	 24.80	
  6.808	-152.311	 19.21070	  6.62800	 13.48394	  8.02125	 12.19757	 -0.13237	 19.50070	705.55103	 24.70	
  6.795	-138.383	 19.21959	  7.11847	 12.89218	  7.27129	 13.03668	 -0.14191	 19.52445	705.47400	 24.80	
  6.792	-124.591	 19.20221	  7.76003	 12.12503	  6.68057	 13.69335	 -0.16031	 19.52184	705.51898	 24.80	
  6.787	-110.754	 19.15415	  8.54558	 11.21569	  6.31341	 14.11204	 -0.18548	 19.47799	705.45801	 24.80	
  6.800	-96.985	 19.16866	  9.43676	 10.29961	  6.13714	 14.35421	 -0.21244	 19.50012	705.63397	 24.80	
  6.800	-83.015	 19.16923	 10.40683	  9.30287	  6.14381	 14.34572	 -0.22473	 19.50244	705.68298	 24.80	
  6.787	-69.246	 19.17166	 11.35932	  8.49329	  6.32785	 14.08796	 -0.21967	 19.50379	705.59497	 24.80	
  6.792	-55.409	 19.17662	 12.24798	  7.73447	  6.73467	 13.61603	 -0.21296	 19.50657	705.55902	 24.80	
  6.795	-41.617	 19.18872	 13.02781	  7.09316	  7.32786	 12.93882	 -0.20677	 19.51566	705.57599	 24.80	
  6.808	-27.689	 19.19548	 13.63983	  6.61121	  8.06385	 12.08790	 -0.18507	 19.51300	705.51398	 24.80	
  6.796	-13.771	 19.19033	 14.00204	  6.32254	  8.88515	 11.15023	 -0.15221	 19.49458	705.58398	 24.80	
  6.800	  0.000	 19.22108	 14.16266	  6.24952	  9.78332	 10.23109	 -0.14814	 19.51093	705.47998	 24.80	
  6.796	 13.771	 19.19712	 14.04314	  6.31765	 10.74409	  9.26749	 -0.14483	 19.48240	705.65399	 24.80	
  6.808	 27.689	 19.20790	 13.70973	  6.62810	 11.68827	  8.41672	 -0.13207	 19.49821	705.58698	 24.80	
  6.795	 41.617	 19.22473	 13.13961	  7.07920	 12.51687	  7.72580	 -0.10937	 19.49976	705.48798	 24.80	
  6.792	 55.409	 19.23503	 12.39363	  7.71627	 13.20040	  7.16782	 -0.10806	 19.49859	705.46100	 24.80	
  6.787	 69.246	 19.22642	 11.51560	  8.47592	 13.67317	  6.81245	 -0.11725	 19.48792	705.52698	 24.80	
  6.800	 83.015	 19.30805	 10.61050	  9.38826	 13.97426	  6.67064	 -0.12002	 19.55700	705.54401	 24.80	
  6.800	 96.985	 19.25005	  9.62807	 10.32999	 13.93089	  6.66698	 -0.13395	 19.49915	705.58197	 24.80	
  6.787	110.754	 19.24730	  8.72456	 11.27589	 13.66658	  6.87629	 -0.13841	 19.49322	705.58600	 24.80	
  6.792	124.591	 19.23702	  7.91572	 12.15856	 13.18376	  7.25487	 -0.13011	 19.47490	705.54401	 24.80	
  6.795	138.383	 19.25620	  7.26237	 12.91806	 12.52762	  7.84394	 -0.12990	 19.50096	705.62402	 24.80	
  6.808	152.311	 19.24629	  6.74874	 13.49404	 11.70014	  8.56386	 -0.12068	 19.49232	705.71301	 24.80	
  6.796	166.229	 19.28285	  6.44884	 13.88128	 10.80311	  9.44741	 -0.11934	 19.54299	705.60901	 24.80	
  8.491	168.704	 19.01553	  5.29189	 14.69674	 10.57252	  9.18010	 -0.25372	 19.50594	705.59802	 24.80	
  8.502	157.493	 19.01559	  5.53943	 14.41329	 11.52772	  8.29288	 -0.25921	 19.50588	705.66901	 24.80	
  8.494	146.194	 19.01212	  5.96484	 13.91466	 12.41721	  7.48844	 -0.27314	 19.49355	705.54498	 24.80	
  8.495	135.039	 19.03115	  6.52380	 13.27241	 13.22107	  6.80170	 -0.27756	 19.50353	705.61700	 24.80	
  8.487	123.723	 19.03419	  7.22252	 12.46378	 13.89152	  6.24326	 -0.27759	 19.51146	705.64398	 24.80	
  8.492	112.575	 19.01996	  8.01136	 11.55747	 14.37174	  5.87064	 -0.29964	 19.50062	705.67700	 24.80	
  8.510	101.220	 19.03606	  8.92266	 10.59540	 14.68873	  5.61935	 -0.30612	 19.51242	705.71100	 24.80	
  8.500	 90.000	 19.04765	  9.88435	  9.61196	 14.79176	  5.53270	 -0.29419	 19.52544	705.64398	 24.80	
  8.510	 78.780	 19.02506	 10.85660	  8.65149	 14.69257	  5.58237	 -0.26356	 19.50869	705.66901	 24.80	
  8.492	 67.425	 19.02558	 11.81781	  7.80356	 14.38463	  5.80599	 -0.25506	 19.51874	705.71600	 24.80	
  8.487	 56.277	 18.99236	 12.68868	  7.04090	 13.87392	  6.13614	 -0.26517	 19.49452	705.60101	 24.80	
  8.495	 44.961	 18.99540	 13.49258	  6.32162	 13.20591	  6.65762	 -0.26754	 19.52039	705.63202	 24.80	
  8.494	 33.806	 18.96618	 14.11628	  5.81938	 12.37747	  7.32947	 -0.26009	 19.49930	705.61298	 24.80	
  8.502	 22.507	 18.97028	 14.60379	  5.41439	 11.48038	  8.11446	 -0.29601	 19.50691	705.78900	 24.80	
  8.491	 11.296	 18.95177	 14.86856	  5.15987	 10.50510	  8.98440	 -0.31527	 19.49436	705.72803	 24.80	
  8.500	  0.000	 18.96081	 14.97241	  5.08270	  9.51443	  9.95376	 -0.31249	 19.50381	705.67102	 24.80	
  8.491	-11.296	 18.94066	 14.83528	  5.15189	  8.60673	 10.91437	 -0.30482	 19.49602	705.79797	 24.80	
  8.502	-22.507	 18.93275	 14.51836	  5.38263	  7.73274	 11.87558	 -0.33078	 19.50227	705.70300	 24.80	
  8.494	-33.806	 18.92075	 14.00026	  5.77854	  6.90022	 12.78349	 -0.35618	 19.48800	705.71899	 24.80	
  8.495	-44.961	 18.92329	 13.33500	  6.31731	  6.21370	 13.60484	 -0.37788	 19.51230	705.72803	 24.80	
  8.487	-56.277	 18.91007	 12.50956	  7.01724	  5.72547	 14.25180	 -0.39583	 19.50219	705.64801	 24.80	
  8.492	-67.425	 18.90338	 11.60735	  7.77301	  5.35789	 14.73918	 -0.40809	 19.49973	705.75800	 24.80	
  8.510	-78.780	 18.90683	 10.63812	  8.61302	  5.13773	 15.07246	 -0.41484	 19.51177	705.76703	 24.80	
  8.500	-90.000	 18.91459	  9.65990	  9.52115	  5.05061	 15.19496	 -0.41361	 19.51393	705.66498	 24.80	
  8.510	-101.220	 18.89246	  8.68100	 10.52283	  5.10002	 15.09129	 -0.38151	 19.48688	705.66901	 24.80	
  8.492	-112.575	 18.92237	  7.80704	 11.51955	  5.37174	 14.82021	 -0.34499	 19.51395	705.64600	 24.80	
  8.487	-123.723	 18.93022	  7.02137	 12.40507	  5.73771	 14.34143	 -0.32367	 19.50111	705.60602	 24.80	
  8.495	-135.039	 18.95399	  6.34862	 13.22029	  6.21416	 13.72203	 -0.31297	 19.52020	705.83099	 24.80	
  8.494	-146.194	 18.94720	  5.80792	 13.85781	  6.87235	 12.92879	 -0.29018	 19.50524	705.70300	 24.80	
  8.502	-157.493	 18.95265	  5.42216	 14.35995	  7.70975	 12.03013	 -0.28613	 19.49229	705.71301	 24.80	
  8.491	-168.704	 19.00225	  5.23366	 14.69594	  8.61438	 11.11616	 -0.29009	 19.53082	705.86603	 24.80	
  8.500	180.000	 18.97452	  5.16282	 14.77751	  9.56322	 10.13362	 -0.29321	 19.48506	705.79498	 24.80	
 10.200	180.000	 18.70631	  4.02127	 15.57586	  9.28789	  9.86120	 -0.43609	 19.52693	705.74103	 24.80	
 10.191	-170.497	 18.68159	  4.05341	 15.47036	  8.31440	 10.82917	 -0.45375	 19.52206	705.72803	 24.80	
 10.210	-161.034	 18.65243	  4.21336	 15.19328	  7.38084	 11.78125	 -0.45505	 19.50305	705.77197	 24.80	
 10.194	-151.526	 18.62991	  4.53439	 14.74292	  6.51904	 12.71268	 -0.43915	 19.48678	705.66302	 24.80	
 10.190	-142.105	 18.62739	  4.97549	 14.19091	  5.80940	 13.57667	 -0.43923	 19.51375	705.74799	 24.80	
 10.215	-132.646	 18.58397	  5.51892	 13.46623	  5.20256	 14.30614	 -0.44530	 19.48605	705.72699	 24.80	
 10.203	-123.092	 18.59295	  6.22544	 12.63525	  4.70114	 14.96126	 -0.47017	 19.51264	705.76398	 24.80	
 10.192	-113.678	 18.57857	  7.02403	 11.71408	  4.31055	 15.43959	 -0.49843	 19.51269	705.84601	 24.80	
 10.208	-104.249	 18.56399	  7.87520	 10.74190	  4.00810	 15.76832	 -0.54460	 19.50019	705.82098	 24.80	
 10.210	-94.801	 18.57099	  8.81655	  9.74488	  3.85032	 15.94316	 -0.58549	 19.51486	705.74402	 24.80	
 10.210	-85.199	 18.58326	  9.82855	  8.75588	  3.88185	 15.93956	 -0.60190	 19.53469	705.77802	 24.80	
 10.208	-75.751	 18.56644	 10.80976	  7.81989	  4.01170	 15.73603	 -0.60839	 19.50458	705.75000	 24.80	
 10.192	-66.322	 18.56794	 11.77694	  6.98330	  4.28015	 15.37108	 -0.60192	 19.49687	705.73401	 24.80	
 10.203	-56.908	 18.56462	 12.69586	  6.23510	  4.66594	 14.85677	 -0.57922	 19.49709	705.79303	 24.80	
 10.215	-47.354	 18.59548	 13.57431	  5.50479	  5.20287	 14.22290	 -0.55442	 19.52279	705.82898	 24.80	
 10.190	-37.895	 18.61493	 14.30371	  4.91964	  5.82182	 13.44855	 -0.53510	 19.52954	705.73297	 24.80	
 10.194	-28.474	 18.61141	 14.87978	  4.46700	  6.50213	 12.56225	 -0.50922	 19.50875	705.75598	 24.80	
 10.210	-18.966	 18.61879	 15.33167	  4.11178	  7.31884	 11.61004	 -0.48869	 19.50563	705.83502	 24.80	
 10.191	 -9.503	 18.65837	 15.61962	  3.92054	  8.25707	 10.66241	 -0.48216	 19.53455	705.78699	 24.80	
 10.200	  0.000	 18.63403	 15.70528	  3.85182	  9.21469	  9.66511	 -0.48916	 19.49728	705.72803	 24.80	
 10.191	  9.503	 18.65123	 15.65182	  3.91986	 10.22542	  8.69939	 -0.49974	 19.50857	705.92102	 24.80	
 10.210	 18.966	 18.66075	 15.42916	  4.14303	 11.20133	  7.79202	 -0.49282	 19.52084	705.83398	 24.80	
 10.194	 28.474	 18.65922	 15.01818	  4.51234	 12.14877	  6.96141	 -0.46173	 19.51470	705.68500	 24.70	
 10.190	 37.895	 18.67541	 14.45820	  4.93781	 13.04163	  6.21564	 -0.43701	 19.51501	705.90399	 24.80	
 10.215	 47.354	 18.66153	 13.75520	  5.52663	 13.82748	  5.57097	 -0.42991	 19.50178	705.75897	 24.80	
 10.203	 56.908	 18.69509	 12.95127	  6.27400	 14.49691	  5.10550	 -0.43207	 19.52077	705.85101	 24.80	
 10.192	 66.322	 18.74046	 12.07395	  7.10371	 15.02477	  4.78358	 -0.42261	 19.55558	705.82703	 24.80	
 10.208	 75.751	 18.70122	 11.08980	  7.89701	 15.34824	  4.53336	 -0.44120	 19.50540	705.78101	 24.80	
 10.210	 85.199	 18.73280	 10.12312	  8.79729	 15.54778	  4.43219	 -0.48130	 19.52534	705.91901	 24.80	
 10.210	 94.801	 18.73507	  9.12178	  9.82075	 15.54271	  4.45204	 -0.50965	 19.52751	705.87201	 24.80	
 10.208	104.249	 18.72193	  8.16989	 10.80948	 15.34966	  4.58237	 -0.51917	 19.50040	705.85101	 24.80	
 10.192	113.678	 18.72510	  7.30424	 11.76741	 14.99710	  4.84580	 -0.50464	 19.49718	705.92401	 24.80	
 10.203	123.092	 18.73285	  6.49213	 12.68559	 14.51291	  5.21357	 -0.47077	 19.50934	705.79303	 24.80	
 10.215	132.646	 18.73532	  5.76125	 13.53148	 13.87817	  5.72490	 -0.45709	 19.51781	705.90698	 24.80	
 10.190	142.105	 18.74488	  5.16729	 14.24570	 13.09849	  6.39279	 -0.45135	 19.51863	705.90802	 24.80	
 10.194	151.526	 18.74317	  4.69178	 14.82162	 12.22376	  7.14870	 -0.44798	 19.52679	705.86603	 24.80	
 10.210	161.034	 18.73698	  4.33165	 15.25539	 11.28582	  7.99618	 -0.43352	 19.53173	705.91602	 24.80	
 10.191	170.497	 18.71178	  4.11672	 15.47567	 10.29342	  8.90119	 -0.43706	 19.52038	705.83099	 24.80	
 11.899	171.783	 18.33851	  2.97402	 16.20913	  9.96016	  8.55665	 -0.59976	 19.52776	705.80402	 24.80	
 11.890	163.610	 18.32215	  3.17035	 15.96741	 10.93208	  7.63187	 -0.58787	 19.48710	705.85999	 24.80	
 11.889	155.445	 18.35497	  3.46787	 15.62353	 11.91261	  6.78045	 -0.59037	 19.51382	705.77002	 24.80	
 11.909	147.299	 18.35900	  3.84076	 15.12549	 12.84048	  5.96508	 -0.60465	 19.52032	705.86200	 24.80	
 11.902	139.148	 18.33899	  4.34367	 14.46554	 13.66835	  5.25776	 -0.60948	 19.48415	705.91101	 24.80	
 11.894	130.867	 18.40295	  4.99782	 13.74491	 14.45863	  4.69864	 -0.62246	 19.54370	705.91101	 24.80	
 11.897	122.732	 18.38056	  5.70408	 12.89171	 15.08778	  4.21641	 -0.65229	 19.52684	705.95502	 24.80	
 11.903	114.597	 18.33821	  6.47676	 11.94346	 15.57377	  3.83280	 -0.68774	 19.49463	705.81000	 24.80	
 11.893	106.346	 18.35142	  7.37076	 10.96186	 15.96168	  3.55661	 -0.70590	 19.50951	705.89697	 24.80	
 11.892	 98.155	 18.35785	  8.30614	  9.96559	 16.19387	  3.37946	 -0.70866	 19.52443	705.90698	 24.70	
 11.900	 90.000	 18.34043	  9.26718	  8.95491	 16.25861	  3.29914	 -0.68202	 19.50516	705.82898	 24.80	
 11.892	 81.845	 18.34235	 10.26121	  7.98439	 16.17847	  3.35216	 -0.64006	 19.51917	705.83698	 24.80	
 11.893	 73.654	 18.32934	 11.24844	  7.12858	 15.94895	  3.50195	 -0.59012	 19.51641	705.78101	 24.80	
 11.903	 65.403	 18.30077	 12.20642	  6.25454	 15.54502	  3.75286	 -0.57228	 19.49592	706.00299	 24.80	
 11.897	 57.268	 18.32542	 13.14288	  5.45632	 15.04764	  4.12867	 -0.57113	 19.53696	705.89001	 24.80	
 11.894	 49.133	 18.28457	 13.94708	  4.72798	 14.36499	  4.57109	 -0.58311	 19.49386	705.85901	 24.80	
 11.902	 40.852	 18.29461	 14.70751	  4.09235	 13.62779	  5.12863	 -0.60347	 19.53000	705.79602	 24.80	
 11.909	 32.701	 18.26972	 15.30495	  3.59240	 12.75938	  5.78582	 -0.62004	 19.51365	705.83099	 24.80	
 11.889	 24.555	 18.27299	 15.79799	  3.23719	 11.82680	  6.57934	 -0.65518	 19.51765	705.85699	 24.80	
 11.890	 16.390	 18.25658	 16.13214	  2.96482	 10.85463	  7.42148	 -0.66465	 19.50072	705.98401	 24.80	
 11.899	  8.217	 18.27731	 16.36213	  2.75042	  9.88753	  8.34468	 -0.66897	 19.52431	705.88000	 24.80	
 11.900	  0.000	 18.23381	 16.38255	  2.68973	  8.85934	  9.30704	 -0.66616	 19.48313	705.92999	 24.80	
 11.899	 -8.217	 18.25146	 16.32026	  2.74238	  7.89634	 10.30253	 -0.65044	 19.51825	705.97198	 24.80	
 11.890	-16.390	 18.23022	 16.05780	  2.90369	  6.96270	 11.26621	 -0.65409	 19.50893	705.77301	 24.80	
 11.889	-24.555	 18.22951	 15.67887	  3.20030	  6.14012	 12.24166	 -0.66423	 19.52403	705.73297	 24.80	
 11.909	-32.701	 18.21980	 15.16335	  3.58588	  5.40909	 13.16649	 -0.66128	 19.53096	705.68597	 24.80	
 11.902	-40.852	 18.22632	 14.51844	  4.09013	  4.72966	 14.01904	 -0.69082	 19.54651	705.75500	 24.80	
 11.894	-49.133	 18.16982	 13.70220	  4.66215	  4.08935	 14.75183	 -0.72025	 19.49599	705.80103	 24.80	
 11.897	-57.268	 18.16075	 12.84744	  5.35800	  3.56279	 15.39897	 -0.74755	 19.50625	705.86603	 24.80	
 11.903	-65.403	 18.16585	 11.92542	  6.20261	  3.15031	 15.93338	 -0.76790	 19.51638	705.88202	 24.80	
 11.893	-73.654	 18.17450	 10.94610	  7.08053	  2.84571	 16.30177	 -0.77553	 19.51129	705.71899	 24.80	
 11.892	-81.845	 18.16558	  9.95354	  7.98199	  2.68265	 16.53061	 -0.76903	 19.51161	705.89001	 24.80	
 11.900	-90.000	 18.15697	  8.95308	  8.87346	  2.64667	 16.60820	 -0.76982	 19.50285	705.94501	 24.80	
 11.892	-98.155	 18.17606	  7.99139	  9.88027	  2.70707	 16.56914	 -0.75023	 19.52679	705.82898	 24.80	
 11.893	-106.346	 18.16331	  7.06544	 10.87126	  2.89467	 16.35575	 -0.70624	 19.50656	705.89899	 24.80	
 11.903	-114.597	 18.17000	  6.19632	 11.85319	  3.19317	 16.00443	 -0.67275	 19.50639	705.80902	 24.80	
 11.897	-122.732	 18.19560	  5.42508	 12.79195	  3.61465	 15.51612	 -0.63180	 19.51598	705.90002	 24.80	
 11.894	-130.867	 18.22098	  4.73556	 13.65127	  4.12427	 14.90912	 -0.60633	 19.53112	705.87598	 24.80	
 11.902	-139.148	 18.23221	  4.12614	 14.41866	  4.72816	 14.15606	 -0.60927	 19.53056	705.99200	 24.80	
 11.909	-147.299	 18.27172	  3.65682	 15.07915	  5.40739	 13.35752	 -0.62567	 19.54838	705.88000	 24.80	
 11.889	-155.445	 18.25732	  3.30154	 15.56081	  6.16236	 12.43430	 -0.63437	 19.51411	705.84497	 24.80	
 11.890	-163.610	 18.27437	  3.05343	 15.92513	  7.03475	 11.46918	 -0.65321	 19.50307	705.90503	 24.80	
 11.899	-171.783	 18.28887	  2.90836	 16.16834	  7.96028	 10.50488	 -0.65179	 19.50639	705.78998	 24.80	
 11.900	180.000	 18.33326	  2.88543	 16.28509	  8.94773	  9.54079	 -0.63430	 19.54111	705.86499	 24.80	
 13.600	180.000	 17.87128	  1.75798	 16.91151	  8.55265	  9.14826	 -0.79194	 19.52214	705.79498	 24.80	
 13.608	-172.853	 17.86483	  1.77361	 16.84823	  7.59346	 10.11315	 -0.81426	 19.53712	705.76703	 24.80	
 13.611	-165.583	 17.83211	  1.88019	 16.62732	  6.64333	 11.09184	 -0.81099	 19.51680	705.91302	 24.80	
 13.601	-158.353	 17.80120	  2.09209	 16.27818	  5.77552	 12.05685	 -0.79830	 19.50378	705.86798	 24.80	
 13.609	-151.210	 17.78233	  2.38088	 15.82763	  4.97864	 12.97638	 -0.78297	 19.51243	705.81201	 24.80	
 13.611	-143.999	 17.76522	  2.77230	 15.24407	  4.24433	 13.84833	 -0.76552	 19.51302	705.82098	 24.80	
 13.601	-136.825	 17.75551	  3.29242	 14.55557	  3.57518	 14.66060	 -0.74263	 19.51390	705.95502	 24.80	
 13.596	-129.640	 17.74918	  3.90128	 13.76563	  2.99455	 15.38725	 -0.73502	 19.52561	705.82098	 24.80	
