FileType=PCF
NHL=14
Date=08/29/17	17:10:48
Facility=APL
Serial=16328-16
Customer=NASA
NP=6
Mach=0.100000
Calibration=1:1
CalPts=490
TstPts=95
PortNumbering=AP Standard
Units=Torr C m/s kg/m^3 deg mm 
Theta[deg]	Phi[deg]	P1[Torr]	P2[Torr]	P3[Torr]	P4[Torr]	P5[Torr]	P6[Torr]	Pt[Torr]	Ps[Abs,Torr]	Ts[C]	
  0.000	  0.000	  4.95938	  2.69923	  2.65527	  2.64947	  2.77296	  0.03076	  4.95727	705.43298	 23.90	
  1.691	128.401	  4.96624	  2.56187	  2.77853	  2.81547	  2.59524	  0.02773	  4.96379	705.52301	 23.90	
  1.692	 77.194	  4.94811	  2.73422	  2.58811	  2.84495	  2.54644	  0.02708	  4.94453	705.37000	 23.90	
  1.699	 26.182	  4.96565	  2.88560	  2.45204	  2.75094	  2.64916	  0.02385	  4.96586	705.44299	 23.90	
  1.699	-26.182	  4.95178	  2.88354	  2.43077	  2.53785	  2.83951	  0.02051	  4.95062	705.35602	 23.90	
  1.692	-77.194	  4.97183	  2.72878	  2.58827	  2.42596	  2.98604	  0.01780	  4.96975	705.46899	 23.90	
  1.691	-128.401	  4.95469	  2.52645	  2.78356	  2.46652	  2.92656	  0.02181	  4.95357	705.40601	 23.90	
  1.700	180.000	  4.96400	  2.47045	  2.86883	  2.64671	  2.75193	  0.02507	  4.96298	705.43298	 23.90	
  3.400	180.000	  4.95310	  2.20242	  3.11037	  2.60280	  2.72939	  0.01679	  4.95952	705.51300	 23.90	
  3.388	-152.325	  4.94336	  2.23960	  3.04226	  2.38180	  2.95101	  0.01237	  4.95080	705.53699	 23.90	
  3.397	-124.529	  4.93513	  2.37062	  2.87462	  2.21939	  3.12205	  0.00942	  4.94499	705.49701	 23.90	
  3.399	-96.763	  4.94600	  2.58231	  2.65774	  2.14752	  3.21421	  0.00422	  4.95628	705.46899	 23.90	
  3.394	-69.283	  4.94100	  2.80748	  2.42990	  2.17272	  3.17577	  0.00228	  4.95197	705.51898	 23.90	
  3.400	-41.398	  4.94581	  3.01138	  2.24912	  2.29120	  3.03943	  0.00210	  4.95354	705.52802	 23.80	
  3.401	-14.021	  4.95353	  3.13109	  2.16389	  2.48088	  2.84191	  0.00584	  4.96064	705.48199	 23.80	
  3.401	 14.021	  4.94624	  3.13066	  2.16705	  2.71505	  2.60212	  0.00847	  4.95257	705.50299	 23.80	
  3.400	 41.398	  4.94423	  3.02308	  2.26401	  2.92232	  2.41520	  0.01586	  4.94976	705.53400	 23.80	
  3.394	 69.283	  4.95429	  2.82947	  2.44936	  3.06340	  2.30963	  0.01425	  4.95694	705.50800	 23.80	
  3.399	 96.763	  4.94652	  2.60967	  2.65868	  3.08901	  2.29135	  0.01600	  4.95399	705.44897	 23.80	
  3.397	124.529	  4.96865	  2.41035	  2.89381	  3.01431	  2.37271	  0.01358	  4.97147	705.47498	 23.80	
  3.388	152.325	  4.95494	  2.26566	  3.04539	  2.82933	  2.51850	  0.01341	  4.96076	705.56097	 23.80	
  5.099	161.165	  4.92421	  1.96551	  3.29322	  2.80189	  2.46429	 -0.00280	  4.94852	705.59497	 23.80	
  5.109	142.013	  4.93336	  2.07770	  3.17447	  3.03125	  2.26764	 -0.00348	  4.95754	705.45697	 23.80	
  5.095	123.033	  4.92426	  2.24091	  2.97860	  3.19317	  2.12336	 -0.00377	  4.94739	705.43298	 23.80	
  5.105	104.191	  4.94397	  2.45995	  2.76171	  3.31145	  2.03927	 -0.00406	  4.96711	705.50598	 23.80	
  5.093	 85.207	  4.93077	  2.68918	  2.51184	  3.32670	  2.01030	 -0.00473	  4.95655	705.53900	 23.80	
  5.104	 66.290	  4.93372	  2.92790	  2.28624	  3.26195	  2.06222	 -0.00364	  4.95898	705.45801	 23.80	
  5.094	 47.331	  4.92745	  3.13783	  2.09111	  3.11387	  2.17432	 -0.00458	  4.95495	705.49200	 23.80	
  5.089	 28.397	  4.93420	  3.29490	  1.95851	  2.92123	  2.34839	 -0.00660	  4.96370	705.60901	 23.80	
  5.096	  9.576	  4.92789	  3.37129	  1.88412	  2.68516	  2.56283	 -0.00990	  4.95810	705.46899	 23.80	
  5.096	 -9.576	  4.93112	  3.36995	  1.88410	  2.43842	  2.81090	 -0.01458	  4.96543	705.59302	 23.80	
  5.089	-28.397	  4.92364	  3.27567	  1.95171	  2.22093	  3.03523	 -0.01729	  4.95810	705.58698	 23.70	
  5.094	-47.331	  4.93519	  3.12185	  2.08772	  2.04865	  3.24659	 -0.02024	  4.97227	705.56702	 23.70	
  5.104	-66.290	  4.91646	  2.89536	  2.27304	  1.92022	  3.37679	 -0.02310	  4.95474	705.73901	 23.70	
  5.093	-85.207	  4.91688	  2.65827	  2.49909	  1.86272	  3.44768	 -0.02502	  4.95632	705.60901	 23.70	
  5.105	-104.191	  4.93829	  2.42966	  2.75673	  1.88906	  3.44519	 -0.01833	  4.97510	705.51599	 23.70	
  5.095	-123.033	  4.92363	  2.21230	  2.97953	  1.97498	  3.32876	 -0.01327	  4.95774	705.47498	 23.70	
  5.109	-142.013	  4.92374	  2.04977	  3.17192	  2.12846	  3.15686	 -0.00862	  4.95710	705.52301	 23.70	
  5.099	-161.165	  4.92236	  1.94955	  3.29576	  2.33238	  2.93116	 -0.00666	  4.95214	705.69299	 23.70	
  5.100	180.000	  4.92772	  1.92349	  3.34229	  2.56536	  2.69781	 -0.00552	  4.95729	705.46503	 23.70	
  6.800	180.000	  4.88434	  1.63862	  3.56108	  2.51413	  2.65276	 -0.03121	  4.95369	705.51898	 23.70	
  6.796	-166.229	  4.89450	  1.66351	  3.53980	  2.28890	  2.89574	 -0.03236	  4.96733	705.63000	 23.70	
  6.808	-152.311	  4.87797	  1.72542	  3.43805	  2.06604	  3.11511	 -0.03077	  4.95346	705.65399	 23.70	
  6.795	-138.383	  4.88524	  1.84493	  3.29547	  1.88268	  3.32713	 -0.03929	  4.96528	705.53900	 23.70	
  6.792	-124.591	  4.88152	  2.00375	  3.10191	  1.73519	  3.49348	 -0.04238	  4.96232	705.52002	 23.70	
  6.787	-110.754	  4.86858	  2.19834	  2.87023	  1.63265	  3.59932	 -0.04690	  4.95100	705.56097	 23.70	
  6.800	-96.985	  4.86847	  2.42134	  2.63418	  1.58011	  3.65929	 -0.05298	  4.95483	705.56799	 23.70	
  6.800	-83.015	  4.88205	  2.67182	  2.39497	  1.58527	  3.66493	 -0.05844	  4.96678	705.65997	 23.70	
  6.787	-69.246	  4.87202	  2.90282	  2.16699	  1.63422	  3.59462	 -0.05710	  4.95748	705.49902	 23.70	
  6.792	-55.409	  4.86976	  3.12315	  1.96634	  1.73035	  3.47266	 -0.05359	  4.95468	705.50598	 23.70	
  6.795	-41.617	  4.87193	  3.31527	  1.80260	  1.87582	  3.30230	 -0.05274	  4.95609	705.44397	 23.60	
  6.808	-27.689	  4.86603	  3.46379	  1.67610	  2.05556	  3.09055	 -0.04912	  4.94545	705.57501	 23.60	
  6.796	-13.771	  4.87981	  3.56383	  1.60821	  2.27791	  2.86711	 -0.04166	  4.95581	705.45801	 23.60	
  6.800	  0.000	  4.87489	  3.59286	  1.58488	  2.50544	  2.62642	 -0.04098	  4.95174	705.47998	 23.60	
  6.796	 13.771	  4.87408	  3.56972	  1.60549	  2.74380	  2.39471	 -0.04170	  4.94867	705.50800	 23.60	
  6.808	 27.689	  4.88336	  3.48774	  1.68614	  2.98313	  2.18440	 -0.03794	  4.95377	705.59302	 23.60	
  6.795	 41.617	  4.88613	  3.34516	  1.81487	  3.18802	  2.01191	 -0.02979	  4.95579	705.50299	 23.60	
  6.792	 55.409	  4.88673	  3.15766	  1.98099	  3.35907	  1.87200	 -0.03037	  4.95213	705.65503	 23.60	
  6.787	 69.246	  4.88751	  2.94343	  2.17974	  3.47741	  1.78105	 -0.02608	  4.95158	705.45099	 23.60	
  6.800	 83.015	  4.88598	  2.70686	  2.40403	  3.54040	  1.73094	 -0.02769	  4.94862	705.46100	 23.60	
  6.800	 96.985	  4.90199	  2.47201	  2.65378	  3.55403	  1.73833	 -0.03527	  4.96391	705.38800	 23.60	
  6.787	110.754	  4.89067	  2.24215	  2.88251	  3.48295	  1.78764	 -0.03402	  4.95391	705.31702	 23.60	
  6.792	124.591	  4.89129	  2.04593	  3.10312	  3.36225	  1.88885	 -0.03175	  4.95254	705.38501	 23.60	
  6.795	138.383	  4.89325	  1.87998	  3.29617	  3.19448	  2.03238	 -0.03084	  4.95576	705.29401	 23.60	
  6.808	152.311	  4.89264	  1.75101	  3.44582	  2.99128	  2.20987	 -0.02957	  4.95601	705.50598	 23.60	
  6.796	166.229	  4.88376	  1.67356	  3.53008	  2.75620	  2.42068	 -0.02694	  4.95313	705.47198	 23.60	
  8.491	168.704	  4.83920	  1.38346	  3.75307	  2.71215	  2.35974	 -0.06059	  4.96763	705.31897	 23.60	
  8.502	157.493	  4.83294	  1.44505	  3.67369	  2.94456	  2.13593	 -0.06041	  4.95584	705.36499	 23.60	
  8.494	146.194	  4.84217	  1.55320	  3.55424	  3.17596	  1.93886	 -0.06632	  4.96226	705.37000	 23.60	
  8.495	135.039	  4.84946	  1.69462	  3.39552	  3.38161	  1.77100	 -0.06669	  4.97082	705.31702	 23.60	
  8.487	123.723	  4.83869	  1.86859	  3.18329	  3.54162	  1.62890	 -0.06449	  4.95674	705.44299	 23.60	
  8.492	112.575	  4.84304	  2.06961	  2.96095	  3.66886	  1.52738	 -0.06961	  4.96403	705.45697	 23.60	
  8.510	101.220	  4.84829	  2.29662	  2.72228	  3.75135	  1.46439	 -0.07479	  4.97048	705.51398	 23.60	
  8.500	 90.000	  4.84748	  2.53852	  2.47392	  3.77086	  1.44377	 -0.06961	  4.96706	705.48798	 23.60	
  8.510	 78.780	  4.82813	  2.77350	  2.22568	  3.73595	  1.45211	 -0.06313	  4.95053	705.42902	 23.60	
  8.492	 67.425	  4.82386	  3.01162	  1.99283	  3.65129	  1.50829	 -0.06389	  4.94750	705.34998	 23.60	
  8.487	 56.277	  4.82331	  3.23374	  1.79188	  3.52804	  1.60501	 -0.06699	  4.95073	705.44702	 23.60	
  8.495	 44.961	  4.83634	  3.44204	  1.61883	  3.37168	  1.74124	 -0.06590	  4.96718	705.44397	 23.60	
  8.494	 33.806	  4.83340	  3.60190	  1.48210	  3.16680	  1.91213	 -0.06480	  4.96743	705.35901	 23.60	
  8.502	 22.507	  4.81923	  3.71331	  1.37334	  2.93268	  2.10479	 -0.07363	  4.95169	705.34198	 23.60	
  8.491	 11.296	  4.82102	  3.78374	  1.31268	  2.69376	  2.32474	 -0.08228	  4.95510	705.25403	 23.60	
  8.500	  0.000	  4.82395	  3.81270	  1.28896	  2.44536	  2.56950	 -0.07827	  4.96430	705.40100	 23.60	
  8.491	-11.296	  4.81804	  3.77820	  1.31081	  2.20540	  2.80916	 -0.07585	  4.95690	705.41803	 23.60	
  8.502	-22.507	  4.82099	  3.70226	  1.37044	  1.98510	  3.04958	 -0.08009	  4.96648	705.42401	 23.60	
  8.494	-33.806	  4.82381	  3.57320	  1.47436	  1.78274	  3.27946	 -0.08836	  4.97027	705.32599	 23.60	
  8.495	-44.961	  4.80584	  3.39176	  1.60549	  1.60292	  3.46952	 -0.09036	  4.95412	705.51300	 23.60	
  8.487	-56.277	  4.80935	  3.19165	  1.78275	  1.46894	  3.63905	 -0.09086	  4.95939	705.48199	 23.60	
  8.492	-67.425	  4.80440	  2.96330	  1.98026	  1.36571	  3.75959	 -0.09558	  4.95484	705.43701	 23.60	
  8.510	-78.780	  4.81099	  2.72512	  2.20858	  1.30379	  3.84782	 -0.10048	  4.96372	705.40601	 23.60	
  8.500	-90.000	  4.81074	  2.47722	  2.45394	  1.28964	  3.87125	 -0.09726	  4.96076	705.50500	 23.60	
  8.510	-101.220	  4.81455	  2.24000	  2.70168	  1.30794	  3.85356	 -0.09085	  4.96567	705.42603	 23.60	
  8.492	-112.575	  4.81323	  2.01497	  2.94534	  1.37305	  3.77500	 -0.08119	  4.96142	705.40198	 23.60	
  8.487	-123.723	  4.81720	  1.81976	  3.17455	  1.47585	  3.65902	 -0.07834	  4.96743	705.43500	 23.60	
  8.495	-135.039	  4.82680	  1.64943	  3.38433	  1.61295	  3.50340	 -0.07301	  4.97294	705.42700	 23.50	
  8.494	-146.194	  4.82841	  1.52011	  3.54895	  1.78804	  3.30768	 -0.06506	  4.96822	705.40900	 23.50	
  8.502	-157.493	  4.83593	  1.42471	  3.67971	  1.99757	  3.08361	 -0.06440	  4.97059	705.49701	 23.50	
  8.491	-168.704	  4.82821	  1.36819	  3.74843	  2.21734	  2.84229	 -0.06766	  4.96239	705.43298	 23.50	
  8.500	180.000	  4.82543	  1.35217	  3.77208	  2.45404	  2.59669	 -0.06481	  4.95428	705.49701	 23.50	
 10.200	180.000	  4.75350	  1.06006	  3.97158	  2.38296	  2.52847	 -0.10400	  4.96269	705.42700	 23.50	
 10.191	-170.497	  4.73811	  1.06915	  3.93784	  2.13497	  2.76397	 -0.10567	  4.94963	705.37903	 23.50	
 10.210	-161.034	  4.74960	  1.11450	  3.88585	  1.90960	  3.01301	 -0.10547	  4.96209	705.36401	 23.50	
 10.194	-151.526	  4.73354	  1.19257	  3.76262	  1.69112	  3.24192	 -0.10098	  4.95362	705.48199	 23.50	
 10.190	-142.105	  4.73794	  1.30614	  3.62036	  1.49975	  3.46259	 -0.10380	  4.96336	705.50800	 23.50	
 10.215	-132.646	  4.72963	  1.44584	  3.43854	  1.33684	  3.64835	 -0.10615	  4.95851	705.37500	 23.50	
 10.203	-123.092	  4.72855	  1.61985	  3.22664	  1.20143	  3.81009	 -0.11142	  4.95816	705.44897	 23.50	
 10.192	-113.678	  4.72623	  1.81631	  2.99609	  1.10255	  3.93027	 -0.11866	  4.95794	705.39600	 23.50	
 10.208	-104.249	  4.70824	  2.02769	  2.74415	  1.02456	  4.00436	 -0.12874	  4.94372	705.38501	 23.50	
 10.210	-94.801	  4.72660	  2.27444	  2.50437	  0.99325	  4.06178	 -0.13773	  4.96656	705.28601	 23.50	
 10.210	-85.199	  4.72671	  2.52310	  2.25212	  0.99160	  4.05717	 -0.14241	  4.96439	705.33698	 23.50	
 10.208	-75.751	  4.72543	  2.76781	  2.01249	  1.02655	  4.00798	 -0.14472	  4.96315	705.31897	 23.50	
 10.192	-66.322	  4.73496	  3.01788	  1.79317	  1.09901	  3.92474	 -0.13652	  4.96877	705.27802	 23.50	
 10.203	-56.908	  4.72007	  3.23816	  1.58498	  1.19266	  3.78710	 -0.13214	  4.95301	705.32599	 23.50	
 10.215	-47.354	  4.73115	  3.46073	  1.40506	  1.32888	  3.62880	 -0.13175	  4.96396	705.43701	 23.50	
 10.190	-37.895	  4.73372	  3.63664	  1.26517	  1.49520	  3.43378	 -0.12435	  4.96124	705.31702	 23.50	
 10.194	-28.474	  4.72516	  3.77906	  1.14585	  1.67916	  3.20886	 -0.11890	  4.95211	705.34698	 23.50	
 10.210	-18.966	  4.73667	  3.90331	  1.05931	  1.89856	  2.97439	 -0.12042	  4.95877	705.28802	 23.50	
 10.191	 -9.503	  4.73966	  3.97169	  1.01174	  2.12833	  2.73237	 -0.11563	  4.95949	705.43500	 23.50	
 10.200	  0.000	  4.73800	  3.99774	  0.99454	  2.36797	  2.48725	 -0.11801	  4.95455	705.34003	 23.50	
 10.191	  9.503	  4.73849	  3.98058	  1.01351	  2.61945	  2.24413	 -0.11856	  4.95407	705.42603	 23.50	
 10.210	 18.966	  4.75346	  3.93046	  1.06817	  2.87315	  2.02419	 -0.11388	  4.96636	705.34198	 23.50	
 10.194	 28.474	  4.74859	  3.82314	  1.15682	  3.10614	  1.81630	 -0.10560	  4.95882	705.38702	 23.50	
 10.190	 37.895	  4.75925	  3.68907	  1.27583	  3.33545	  1.62950	 -0.10001	  4.96999	705.25500	 23.50	
 10.215	 47.354	  4.74500	  3.50329	  1.41700	  3.52121	  1.46472	 -0.10212	  4.95466	705.41602	 23.50	
 10.203	 56.908	  4.75092	  3.30142	  1.60049	  3.68561	  1.34008	 -0.09974	  4.95600	705.45697	 23.50	
 10.192	 66.322	  4.75659	  3.07385	  1.80881	  3.81652	  1.24486	 -0.09932	  4.95450	705.36401	 23.50	
 10.208	 75.751	  4.75256	  2.83153	  2.02865	  3.90529	  1.17575	 -0.09865	  4.95264	705.35400	 23.50	
 10.210	 85.199	  4.76816	  2.59582	  2.27458	  3.96285	  1.15195	 -0.10701	  4.96780	705.26398	 23.50	
 10.210	 94.801	  4.75902	  2.33944	  2.52471	  3.95665	  1.15207	 -0.11535	  4.95762	705.35400	 23.50	
 10.208	104.249	  4.77126	  2.10840	  2.77907	  3.92136	  1.19180	 -0.11848	  4.96804	705.39502	 23.50	
 10.192	113.678	  4.76590	  1.88482	  3.01837	  3.82690	  1.26505	 -0.11237	  4.95973	705.42603	 23.50	
 10.203	123.092	  4.75900	  1.68139	  3.24189	  3.69625	  1.36138	 -0.10483	  4.95385	705.34998	 23.50	
 10.215	132.646	  4.77567	  1.50454	  3.46418	  3.54922	  1.49597	 -0.10222	  4.97160	705.46002	 23.50	
 10.190	142.105	  4.76758	  1.35316	  3.63520	  3.34443	  1.65961	 -0.10106	  4.96355	705.41803	 23.50	
 10.194	151.526	  4.77048	  1.23489	  3.78463	  3.12610	  1.85163	 -0.09943	  4.96776	705.34198	 23.50	
 10.210	161.034	  4.75629	  1.13931	  3.88692	  2.88354	  2.05614	 -0.09556	  4.95785	705.35699	 23.50	
 10.191	170.497	  4.75198	  1.08507	  3.94734	  2.63673	  2.28177	 -0.09737	  4.95688	705.30298	 23.50	
 11.899	171.783	  4.65575	  0.78912	  4.12845	  2.55245	  2.19316	 -0.13784	  4.95513	705.31403	 23.50	
 11.890	163.610	  4.67278	  0.84142	  4.08440	  2.80826	  1.97268	 -0.13440	  4.96763	705.34802	 23.50	
 11.889	155.445	  4.66997	  0.91451	  3.98720	  3.04882	  1.75212	 -0.13678	  4.96236	705.29401	 23.50	
 11.909	147.299	  4.67093	  1.00712	  3.86521	  3.28093	  1.54692	 -0.14782	  4.96438	705.31598	 23.50	
 11.902	139.148	  4.67017	  1.14878	  3.69703	  3.49355	  1.37420	 -0.14003	  4.96078	705.27197	 23.50	
 11.894	130.867	  4.67052	  1.30619	  3.50412	  3.68223	  1.22104	 -0.14718	  4.96032	705.29102	 23.50	
 11.897	122.732	  4.66712	  1.48526	  3.29028	  3.84047	  1.09324	 -0.14947	  4.95746	705.31403	 23.50	
 11.903	114.597	  4.67400	  1.68556	  3.06619	  3.97863	  0.99319	 -0.15832	  4.96340	705.43500	 23.50	
 11.893	106.346	  4.66754	  1.90681	  2.81373	  4.06753	  0.91679	 -0.16303	  4.96063	705.36200	 23.50	
 11.892	 98.155	  4.65841	  2.13760	  2.55838	  4.11619	  0.86991	 -0.15946	  4.94788	705.33301	 23.50	
 11.900	 90.000	  4.67204	  2.38743	  2.31470	  4.14656	  0.85533	 -0.15347	  4.95970	705.21198	 23.50	
 11.892	 81.845	  4.66868	  2.63503	  2.06953	  4.12315	  0.86867	 -0.14133	  4.95976	705.26001	 23.50	
 11.893	 73.654	  4.66560	  2.88220	  1.83285	  4.06379	  0.90501	 -0.13399	  4.96226	705.23798	 23.50	
 11.903	 65.403	  4.65288	  3.11802	  1.60483	  3.95948	  0.97162	 -0.13272	  4.95129	705.16803	 23.50	
 11.897	 57.268	  4.65907	  3.35097	  1.40464	  3.83355	  1.07043	 -0.13434	  4.95850	705.21198	 23.50	
 11.894	 49.133	  4.65558	  3.55452	  1.22633	  3.66758	  1.19515	 -0.13663	  4.95612	705.17401	 23.40	
 11.902	 40.852	  4.65137	  3.74308	  1.06607	  3.47723	  1.34004	 -0.14013	  4.95926	705.21600	 23.40	
 11.909	 32.701	  4.64813	  3.89541	  0.93835	  3.26480	  1.51207	 -0.14136	  4.95798	705.26001	 23.40	
 11.889	 24.555	  4.64407	  4.01660	  0.83882	  3.02585	  1.71373	 -0.14773	  4.95231	705.14203	 23.40	
 11.890	 16.390	  4.65105	  4.11478	  0.76651	  2.78716	  1.92933	 -0.15498	  4.96286	705.28497	 23.40	
 11.899	  8.217	  4.63866	  4.15596	  0.71842	  2.53378	  2.15103	 -0.16044	  4.95116	705.13898	 23.40	
 11.900	  0.000	  4.65178	  4.18186	  0.70531	  2.28978	  2.40033	 -0.16188	  4.96646	705.36200	 23.40	
 11.899	 -8.217	  4.64922	  4.15663	  0.71869	  2.04302	  2.64926	 -0.15253	  4.96242	705.23602	 23.40	
 11.890	-16.390	  4.64166	  4.09079	  0.76099	  1.80847	  2.89137	 -0.14969	  4.95921	705.17798	 23.40	
 11.889	-24.555	  4.63253	  3.98540	  0.83219	  1.58682	  3.12949	 -0.15366	  4.95279	705.21802	 23.40	
 11.909	-32.701	  4.63850	  3.86140	  0.92880	  1.38560	  3.36837	 -0.15865	  4.96274	705.29401	 23.40	
 11.902	-40.852	  4.62795	  3.69094	  1.05401	  1.21170	  3.57086	 -0.15994	  4.95537	705.12903	 23.40	
 11.894	-49.133	  4.63297	  3.49996	  1.21199	  1.05672	  3.76721	 -0.16723	  4.96392	705.18500	 23.40	
 11.897	-57.268	  4.62632	  3.28302	  1.38883	  0.92794	  3.92577	 -0.17141	  4.95936	705.17297	 23.40	
 11.903	-65.403	  4.62510	  3.04910	  1.58882	  0.82475	  4.05868	 -0.17583	  4.96142	705.13397	 23.40	
 11.893	-73.654	  4.62191	  2.80177	  1.81039	  0.75643	  4.14757	 -0.17945	  4.95584	705.22601	 23.40	
 11.892	-81.845	  4.62630	  2.55646	  2.04760	  0.71719	  4.21178	 -0.17922	  4.96428	705.20398	 23.40	
 11.900	-90.000	  4.61443	  2.29947	  2.28740	  0.69996	  4.22270	 -0.18184	  4.95146	705.13599	 23.40	
 11.892	-98.155	  4.63064	  2.06664	  2.54572	  0.72054	  4.21974	 -0.17490	  4.96753	705.22601	 23.40	
 11.893	-106.346	  4.62176	  1.83198	  2.79025	  0.76002	  4.15964	 -0.16299	  4.95913	705.11499	 23.40	
 11.903	-114.597	  4.62465	  1.61209	  3.04131	  0.83131	  4.07200	 -0.15220	  4.96140	705.25702	 23.40	
 11.897	-122.732	  4.63340	  1.42122	  3.27490	  0.93475	  3.95276	 -0.14502	  4.96690	705.28802	 23.40	
 11.894	-130.867	  4.62327	  1.24615	  3.47770	  1.06172	  3.78273	 -0.14005	  4.94852	705.22998	 23.40	
 11.902	-139.148	  4.64395	  1.09823	  3.68581	  1.22049	  3.60993	 -0.13927	  4.96776	705.24902	 23.40	
 11.909	-147.299	  4.64428	  0.97292	  3.84830	  1.40004	  3.40073	 -0.13914	  4.96608	705.27502	 23.40	
 11.889	-155.445	  4.63760	  0.88167	  3.96669	  1.59810	  3.16594	 -0.14094	  4.95354	705.19800	 23.40	
 11.890	-163.610	  4.64500	  0.81532	  4.06521	  1.82051	  2.92642	 -0.14753	  4.95425	705.03900	 23.40	
 11.899	-171.783	  4.65224	  0.77853	  4.12779	  2.05509	  2.68661	 -0.14617	  4.95752	705.13397	 23.40	
 11.900	180.000	  4.65493	  0.77141	  4.14815	  2.29926	  2.44119	 -0.14162	  4.95689	705.06299	 23.40	
 13.600	180.000	  4.53993	  0.48411	  4.30709	  2.19958	  2.34191	 -0.18236	  4.95480	705.08801	 23.40	
 13.608	-172.853	  4.54555	  0.48793	  4.30169	  1.96376	  2.58949	 -0.18882	  4.96713	705.13702	 23.40	
 13.611	-165.583	  4.52575	  0.51714	  4.23425	  1.71923	  2.82734	 -0.18948	  4.94894	705.06702	 23.40	
 13.601	-158.353	  4.53229	  0.57446	  4.15723	  1.49743	  3.08071	 -0.18594	  4.96227	705.08099	 23.40	
 13.609	-151.210	  4.52271	  0.65138	  4.03670	  1.29151	  3.30471	 -0.18377	  4.95487	705.11499	 23.40	
 13.611	-143.999	  4.51975	  0.75265	  3.89297	  1.10084	  3.52715	 -0.17807	  4.95738	705.07202	 23.40	
 13.601	-136.825	  4.51465	  0.88198	  3.71604	  0.93221	  3.73142	 -0.17441	  4.95784	705.17401	 23.40	
 13.596	-129.640	  4.51706	  1.03895	  3.51979	  0.78925	  3.91674	 -0.17263	  4.96414	705.20697	 23.40	
