FileType=PCF
NHL=14
Date=08/29/17	16:36:01
Facility=APL
Serial=16328-16
Customer=NASA
NP=6
Mach=0.050000
Calibration=1:1
CalPts=490
TstPts=95
PortNumbering=AP Standard
Units=Torr C m/s kg/m^3 deg mm 
Theta[deg]	Phi[deg]	P1[Torr]	P2[Torr]	P3[Torr]	P4[Torr]	P5[Torr]	P6[Torr]	Pt[Torr]	Ps[Abs,Torr]	Ts[C]	
  0.000	  0.000	  1.27560	  0.70086	  0.68947	  0.69610	  0.71426	  0.00591	  1.26714	705.09698	 24.80	
  1.691	128.401	  1.28005	  0.66936	  0.72267	  0.73012	  0.68077	  0.00634	  1.27156	705.00800	 24.80	
  1.692	 77.194	  1.28085	  0.71297	  0.67879	  0.74268	  0.66841	  0.00601	  1.27220	705.09100	 24.80	
  1.699	 26.182	  1.27560	  0.75030	  0.63803	  0.70802	  0.69057	  0.00551	  1.26755	705.06403	 24.80	
  1.699	-26.182	  1.28128	  0.75299	  0.63985	  0.66008	  0.74578	  0.00431	  1.27388	705.11401	 24.80	
  1.692	-77.194	  1.28364	  0.71373	  0.67479	  0.63490	  0.77863	  0.00407	  1.27540	705.14301	 24.80	
  1.691	-128.401	  1.27345	  0.66044	  0.71951	  0.63990	  0.76186	  0.00491	  1.26544	705.05200	 24.80	
  1.700	180.000	  1.27552	  0.64478	  0.74398	  0.68379	  0.71580	  0.00579	  1.26703	705.10797	 24.80	
  3.400	180.000	  1.27465	  0.57993	  0.80691	  0.67781	  0.71315	  0.00314	  1.26851	705.18402	 24.80	
  3.388	-152.325	  1.27754	  0.59178	  0.79327	  0.62503	  0.77182	  0.00175	  1.27144	705.02899	 24.70	
  3.397	-124.529	  1.27710	  0.62507	  0.75117	  0.58376	  0.81688	  0.00075	  1.27202	705.01599	 24.70	
  3.399	-96.763	  1.27633	  0.67644	  0.69409	  0.56457	  0.83755	 -0.00004	  1.27193	705.01202	 24.70	
  3.394	-69.283	  1.27847	  0.73629	  0.63885	  0.57246	  0.83069	  0.00038	  1.27404	705.09497	 24.70	
  3.400	-41.398	  1.27835	  0.78704	  0.59416	  0.60222	  0.79501	  0.00048	  1.27281	705.09698	 24.70	
  3.401	-14.021	  1.27594	  0.81496	  0.56936	  0.64838	  0.74173	  0.00084	  1.27049	705.05798	 24.70	
  3.401	 14.021	  1.27665	  0.81669	  0.56935	  0.70720	  0.68343	  0.00214	  1.27031	704.91699	 24.70	
  3.400	 41.398	  1.27492	  0.78752	  0.59467	  0.75964	  0.63432	  0.00284	  1.26879	704.95599	 24.70	
  3.394	 69.283	  1.27800	  0.73933	  0.64066	  0.79573	  0.60780	  0.00448	  1.27017	705.01599	 24.70	
  3.399	 96.763	  1.27674	  0.68236	  0.69631	  0.80257	  0.60349	  0.00435	  1.26973	704.95001	 24.70	
  3.397	124.529	  1.27299	  0.62907	  0.75025	  0.77907	  0.61921	  0.00340	  1.26697	705.01599	 24.70	
  3.388	152.325	  1.27558	  0.59550	  0.79192	  0.73603	  0.65862	  0.00262	  1.26952	704.96802	 24.70	
  5.099	161.165	  1.26864	  0.52190	  0.85464	  0.73051	  0.64627	 -0.00162	  1.26764	704.96802	 24.70	
  5.109	142.013	  1.26831	  0.54930	  0.82348	  0.78583	  0.59601	 -0.00153	  1.26659	705.02600	 24.70	
  5.095	123.033	  1.27435	  0.59354	  0.77852	  0.83179	  0.56300	 -0.00137	  1.27195	705.06299	 24.70	
  5.105	104.191	  1.27550	  0.64678	  0.72212	  0.85976	  0.54087	 -0.00096	  1.27349	704.99799	 24.70	
  5.093	 85.207	  1.26619	  0.70182	  0.65592	  0.85830	  0.53202	 -0.00089	  1.26336	705.05701	 24.70	
  5.104	 66.290	  1.27304	  0.76583	  0.60192	  0.84682	  0.54657	 -0.00152	  1.27106	705.26801	 24.70	
  5.094	 47.331	  1.27445	  0.82007	  0.55427	  0.81157	  0.57614	 -0.00122	  1.27329	704.98700	 24.70	
  5.089	 28.397	  1.27098	  0.85661	  0.51783	  0.75954	  0.61741	 -0.00241	  1.26970	705.00201	 24.80	
  5.096	  9.576	  1.27272	  0.87752	  0.50053	  0.70032	  0.67348	 -0.00387	  1.27236	704.91803	 24.80	
  5.096	 -9.576	  1.27038	  0.87498	  0.49946	  0.63771	  0.73426	 -0.00525	  1.27022	704.98102	 24.70	
  5.089	-28.397	  1.26708	  0.85090	  0.51651	  0.58238	  0.79036	 -0.00584	  1.26875	705.10602	 24.80	
  5.094	-47.331	  1.26743	  0.81024	  0.54948	  0.53782	  0.84159	 -0.00661	  1.26916	705.14203	 24.80	
  5.104	-66.290	  1.26858	  0.75671	  0.59786	  0.50716	  0.87863	 -0.00620	  1.27128	705.06598	 24.80	
  5.093	-85.207	  1.26521	  0.69435	  0.65373	  0.49256	  0.89321	 -0.00636	  1.26735	704.98700	 24.80	
  5.105	-104.191	  1.27213	  0.63694	  0.71916	  0.49893	  0.89415	 -0.00585	  1.27462	705.03497	 24.80	
  5.095	-123.033	  1.26681	  0.58219	  0.77444	  0.51971	  0.86396	 -0.00437	  1.26920	705.01801	 24.80	
  5.109	-142.013	  1.26683	  0.54186	  0.82261	  0.55830	  0.82064	 -0.00350	  1.26757	705.15399	 24.80	
  5.099	-161.165	  1.27036	  0.51833	  0.85657	  0.61170	  0.76635	 -0.00179	  1.27051	705.15698	 24.80	
  5.100	180.000	  1.26937	  0.51093	  0.86648	  0.66958	  0.70525	 -0.00180	  1.26834	705.12000	 24.80	
  6.800	180.000	  1.25947	  0.43959	  0.92300	  0.65753	  0.69430	 -0.00886	  1.26818	705.14697	 24.70	
  6.796	-166.229	  1.26008	  0.44481	  0.91585	  0.59975	  0.75393	 -0.00890	  1.27054	705.21301	 24.70	
  6.808	-152.311	  1.25787	  0.46053	  0.89135	  0.54462	  0.81065	 -0.00801	  1.26944	705.09399	 24.70	
  6.795	-138.383	  1.25958	  0.49182	  0.85500	  0.49840	  0.86488	 -0.00951	  1.27120	705.13702	 24.70	
  6.792	-124.591	  1.26003	  0.53269	  0.80732	  0.46194	  0.90719	 -0.01174	  1.27296	705.18103	 24.70	
  6.787	-110.754	  1.25800	  0.58176	  0.74925	  0.43692	  0.93468	 -0.01250	  1.27021	705.12000	 24.70	
  6.800	-96.985	  1.25477	  0.63609	  0.68811	  0.42260	  0.94784	 -0.01358	  1.26867	705.21802	 24.70	
  6.800	-83.015	  1.25717	  0.69784	  0.62860	  0.42347	  0.94912	 -0.01569	  1.27123	705.16699	 24.80	
  6.787	-69.246	  1.26107	  0.76025	  0.57376	  0.43783	  0.93594	 -0.01375	  1.27523	705.07001	 24.80	
  6.792	-55.409	  1.25887	  0.81452	  0.52205	  0.46138	  0.90406	 -0.01394	  1.27307	705.08600	 24.80	
  6.795	-41.617	  1.25655	  0.86129	  0.48057	  0.49702	  0.85865	 -0.01412	  1.26933	705.06299	 24.80	
  6.808	-27.689	  1.25865	  0.90121	  0.44935	  0.54371	  0.80747	 -0.01328	  1.27155	705.25201	 24.80	
  6.796	-13.771	  1.25917	  0.92561	  0.43184	  0.59769	  0.74965	 -0.01217	  1.27050	705.16998	 24.80	
  6.800	  0.000	  1.26051	  0.93517	  0.42553	  0.65610	  0.69060	 -0.01103	  1.27195	705.29498	 24.80	
  6.796	 13.771	  1.25928	  0.92759	  0.43191	  0.71595	  0.63171	 -0.01054	  1.26964	705.21198	 24.80	
  6.808	 27.689	  1.25918	  0.90546	  0.44990	  0.77435	  0.57798	 -0.00903	  1.26784	705.15399	 24.80	
  6.795	 41.617	  1.26398	  0.87235	  0.48478	  0.82974	  0.53585	 -0.00734	  1.27229	705.23798	 24.80	
  6.792	 55.409	  1.26594	  0.82688	  0.52755	  0.87401	  0.50112	 -0.00783	  1.27325	705.15698	 24.70	
  6.787	 69.246	  1.26671	  0.77179	  0.57834	  0.90516	  0.47772	 -0.00726	  1.27409	705.18201	 24.80	
  6.800	 83.015	  1.26501	  0.71154	  0.63403	  0.91978	  0.46502	 -0.00734	  1.27145	705.15698	 24.80	
  6.800	 96.985	  1.26690	  0.65158	  0.69600	  0.92156	  0.46637	 -0.00731	  1.27404	705.13397	 24.80	
  6.787	110.754	  1.26378	  0.59348	  0.75287	  0.90274	  0.47880	 -0.00740	  1.27112	705.12903	 24.80	
  6.792	124.591	  1.26486	  0.54435	  0.80995	  0.87383	  0.50434	 -0.00739	  1.27207	705.01599	 24.80	
  6.795	138.383	  1.26240	  0.50143	  0.85672	  0.82947	  0.53937	 -0.00795	  1.26922	705.09698	 24.80	
  6.808	152.311	  1.26395	  0.46993	  0.89492	  0.77918	  0.58420	 -0.00769	  1.27162	705.12000	 24.80	
  6.796	166.229	  1.25951	  0.44824	  0.91510	  0.71822	  0.63556	 -0.00775	  1.26931	705.17603	 24.80	
  8.491	168.704	  1.24767	  0.37638	  0.97062	  0.70692	  0.62045	 -0.01518	  1.27075	705.23199	 24.80	
  8.502	157.493	  1.24797	  0.39273	  0.95189	  0.76682	  0.56525	 -0.01589	  1.27009	705.15900	 24.80	
  8.494	146.194	  1.24934	  0.42026	  0.92112	  0.82422	  0.51615	 -0.01646	  1.27078	705.13702	 24.80	
  8.495	135.039	  1.25067	  0.45514	  0.88050	  0.87581	  0.47330	 -0.01617	  1.27222	705.22900	 24.80	
  8.487	123.723	  1.24946	  0.49918	  0.82848	  0.91737	  0.43806	 -0.01530	  1.27047	705.27100	 24.80	
  8.492	112.575	  1.24970	  0.54931	  0.77217	  0.94827	  0.41286	 -0.01572	  1.27100	705.17401	 24.80	
  8.510	101.220	  1.24768	  0.60448	  0.70924	  0.96651	  0.39591	 -0.01675	  1.26816	705.09698	 24.80	
  8.500	 90.000	  1.24916	  0.66616	  0.64833	  0.97384	  0.39110	 -0.01496	  1.27031	705.12799	 24.70	
  8.510	 78.780	  1.24962	  0.72821	  0.58773	  0.96786	  0.39503	 -0.01373	  1.27028	705.28497	 24.70	
  8.492	 67.425	  1.24981	  0.78890	  0.53081	  0.94893	  0.40964	 -0.01496	  1.27163	705.20898	 24.80	
  8.487	 56.277	  1.24860	  0.84434	  0.48054	  0.91612	  0.43376	 -0.01573	  1.27197	705.24701	 24.80	
  8.495	 44.961	  1.24136	  0.88957	  0.43300	  0.86859	  0.46424	 -0.01573	  1.26412	705.26898	 24.80	
  8.494	 33.806	  1.24875	  0.93604	  0.40095	  0.82328	  0.51024	 -0.01607	  1.27349	705.22101	 24.70	
  8.502	 22.507	  1.24956	  0.96733	  0.37515	  0.76649	  0.56052	 -0.01748	  1.27403	705.20697	 24.80	
  8.491	 11.296	  1.24768	  0.98367	  0.35870	  0.70424	  0.61558	 -0.02093	  1.27273	705.15997	 24.80	
  8.500	  0.000	  1.24641	  0.98916	  0.35218	  0.64116	  0.67469	 -0.02058	  1.27309	705.26898	 24.80	
  8.491	-11.296	  1.24464	  0.97982	  0.35705	  0.58051	  0.73522	 -0.02062	  1.27095	705.12598	 24.80	
  8.502	-22.507	  1.24178	  0.95804	  0.37151	  0.52303	  0.79375	 -0.02148	  1.26898	705.21503	 24.80	
  8.494	-33.806	  1.23835	  0.92239	  0.39579	  0.47066	  0.84944	 -0.02271	  1.26824	705.15698	 24.80	
  8.495	-44.961	  1.23885	  0.88101	  0.42986	  0.42770	  0.90024	 -0.02393	  1.26863	705.22302	 24.80	
  8.487	-56.277	  1.24123	  0.83053	  0.47540	  0.39495	  0.94345	 -0.02301	  1.27097	705.22400	 24.80	
  8.492	-67.425	  1.23590	  0.77056	  0.52316	  0.36852	  0.97086	 -0.02394	  1.26584	705.27802	 24.70	
  8.510	-78.780	  1.24058	  0.71197	  0.58302	  0.35374	  0.99551	 -0.02453	  1.27114	705.38702	 24.70	
  8.500	-90.000	  1.24046	  0.65003	  0.64289	  0.34877	  1.00205	 -0.02330	  1.27033	705.26099	 24.70	
  8.510	-101.220	  1.23758	  0.58843	  0.70335	  0.35236	  0.99403	 -0.02225	  1.26755	705.31598	 24.70	
  8.492	-112.575	  1.24068	  0.53431	  0.76647	  0.37050	  0.97694	 -0.02061	  1.27002	705.29498	 24.70	
  8.487	-123.723	  1.24101	  0.48435	  0.82346	  0.39569	  0.94689	 -0.01927	  1.26990	705.31897	 24.70	
  8.495	-135.039	  1.24292	  0.44243	  0.87601	  0.43027	  0.90737	 -0.01777	  1.27041	705.39600	 24.70	
  8.494	-146.194	  1.23608	  0.40730	  0.91263	  0.47139	  0.85301	 -0.01628	  1.26376	705.25403	 24.70	
  8.502	-157.493	  1.24529	  0.38565	  0.95097	  0.52649	  0.80134	 -0.01641	  1.27252	705.28497	 24.70	
  8.491	-168.704	  1.24676	  0.37267	  0.97039	  0.58242	  0.74198	 -0.01696	  1.27141	705.27100	 24.70	
  8.500	180.000	  1.24841	  0.36936	  0.97851	  0.64369	  0.68220	 -0.01609	  1.27187	705.31403	 24.70	
 10.200	180.000	  1.22753	  0.29472	  1.02722	  0.62478	  0.66314	 -0.02553	  1.27173	705.24597	 24.70	
 10.191	-170.497	  1.22732	  0.29799	  1.02131	  0.56380	  0.72492	 -0.02602	  1.27216	705.29901	 24.70	
 10.210	-161.034	  1.22446	  0.30833	  1.00338	  0.50493	  0.78469	 -0.02567	  1.27094	705.26801	 24.70	
 10.194	-151.526	  1.21868	  0.32808	  0.97115	  0.44951	  0.84039	 -0.02492	  1.26503	705.31598	 24.70	
 10.190	-142.105	  1.21502	  0.35414	  0.93211	  0.40102	  0.89285	 -0.02564	  1.26288	705.22998	 24.70	
 10.215	-132.646	  1.21985	  0.39100	  0.89163	  0.36161	  0.94431	 -0.02756	  1.27012	705.29199	 24.70	
 10.203	-123.092	  1.21602	  0.43320	  0.83560	  0.32718	  0.98237	 -0.02901	  1.26720	705.35101	 24.70	
 10.192	-113.678	  1.21454	  0.48237	  0.77680	  0.30074	  1.01240	 -0.02988	  1.26499	705.31403	 24.70	
 10.208	-104.249	  1.21942	  0.53899	  0.71884	  0.28455	  1.03810	 -0.03119	  1.27144	705.34399	 24.70	
 10.210	-94.801	  1.21723	  0.59711	  0.65471	  0.27431	  1.04759	 -0.03368	  1.26987	705.26398	 24.70	
 10.210	-85.199	  1.22007	  0.66196	  0.59181	  0.27393	  1.04923	 -0.03482	  1.27252	705.34003	 24.70	
 10.208	-75.751	  1.21666	  0.72190	  0.53099	  0.28275	  1.03447	 -0.03503	  1.26829	705.28601	 24.70	
 10.192	-66.322	  1.21862	  0.78427	  0.47675	  0.30088	  1.01303	 -0.03448	  1.27034	705.34198	 24.70	
 10.203	-56.908	  1.21766	  0.84186	  0.42506	  0.32565	  0.97992	 -0.03368	  1.26927	705.38702	 24.70	
 10.215	-47.354	  1.22055	  0.89751	  0.38124	  0.36014	  0.93978	 -0.03437	  1.27087	705.34399	 24.70	
 10.190	-37.895	  1.21995	  0.94233	  0.34423	  0.39999	  0.89072	 -0.03341	  1.27045	705.31598	 24.70	
 10.194	-28.474	  1.22495	  0.98409	  0.31611	  0.44919	  0.83903	 -0.03188	  1.27407	705.27802	 24.70	
 10.210	-18.966	  1.21833	  1.00708	  0.29344	  0.50077	  0.77423	 -0.02918	  1.26709	705.30603	 24.70	
 10.191	 -9.503	  1.22073	  1.02595	  0.28156	  0.55929	  0.71357	 -0.02993	  1.26820	705.34802	 24.70	
 10.200	  0.000	  1.22765	  1.03826	  0.27824	  0.62346	  0.65505	 -0.03026	  1.27308	705.23999	 24.70	
 10.191	  9.503	  1.22558	  1.03162	  0.28288	  0.68487	  0.59341	 -0.03048	  1.27114	705.20898	 24.70	
 10.210	 18.966	  1.22931	  1.01962	  0.29755	  0.74891	  0.53815	 -0.02798	  1.27312	705.26001	 24.70	
 10.194	 28.474	  1.22773	  0.99138	  0.31923	  0.80804	  0.48475	 -0.02551	  1.27106	705.21802	 24.70	
 10.190	 37.895	  1.22560	  0.95393	  0.34828	  0.86138	  0.43766	 -0.02372	  1.26838	705.32300	 24.70	
 10.215	 47.354	  1.22674	  0.91140	  0.38569	  0.91279	  0.39761	 -0.02414	  1.26967	705.28003	 24.70	
 10.203	 56.908	  1.23112	  0.86161	  0.43212	  0.95672	  0.36666	 -0.02422	  1.27258	705.30902	 24.70	
 10.192	 66.322	  1.22993	  0.80297	  0.48302	  0.98698	  0.34339	 -0.02337	  1.27086	705.31403	 24.70	
 10.208	 75.751	  1.22985	  0.74271	  0.53864	  1.01010	  0.32630	 -0.02278	  1.27025	705.33698	 24.70	
 10.210	 85.199	  1.22932	  0.68025	  0.59789	  1.02123	  0.31770	 -0.02333	  1.26898	705.26801	 24.70	
 10.210	 94.801	  1.22802	  0.61591	  0.66175	  1.02043	  0.31867	 -0.02484	  1.26818	705.23602	 24.70	
 10.208	104.249	  1.23282	  0.55949	  0.72669	  1.01300	  0.32884	 -0.02490	  1.27248	705.33002	 24.70	
 10.192	113.678	  1.22810	  0.50183	  0.78478	  0.98613	  0.34633	 -0.02427	  1.26694	705.40100	 24.70	
 10.203	123.092	  1.23015	  0.45171	  0.84412	  0.95717	  0.37086	 -0.02519	  1.26997	705.33301	 24.70	
 10.215	132.646	  1.23180	  0.40616	  0.89787	  0.91716	  0.40372	 -0.02493	  1.27231	705.38501	 24.70	
 10.190	142.105	  1.23050	  0.36938	  0.94157	  0.86656	  0.44483	 -0.02492	  1.26975	705.38202	 24.70	
 10.194	151.526	  1.22587	  0.33768	  0.97538	  0.80795	  0.49043	 -0.02448	  1.26635	705.36200	 24.70	
 10.210	161.034	  1.22895	  0.31579	  1.00599	  0.75083	  0.54432	 -0.02401	  1.27090	705.45502	 24.70	
 10.191	170.497	  1.22142	  0.29980	  1.01665	  0.68501	  0.59832	 -0.02354	  1.26377	705.42902	 24.70	
 11.899	171.783	  1.20765	  0.22742	  1.07078	  0.66949	  0.58104	 -0.03436	  1.27448	705.34198	 24.70	
 11.890	163.610	  1.20929	  0.24023	  1.05748	  0.73280	  0.52365	 -0.03463	  1.27543	705.36401	 24.70	
 11.889	155.445	  1.20680	  0.25957	  1.03089	  0.79163	  0.46889	 -0.03329	  1.27149	705.40198	 24.70	
 11.909	147.299	  1.20906	  0.28537	  1.00082	  0.85247	  0.41875	 -0.03443	  1.27351	705.24902	 24.70	
 11.902	139.148	  1.21004	  0.31869	  0.95968	  0.90645	  0.37470	 -0.03464	  1.27409	705.41602	 24.70	
 11.894	130.867	  1.21128	  0.35969	  0.91206	  0.95544	  0.33727	 -0.03461	  1.27402	705.43201	 24.80	
 11.897	122.732	  1.20819	  0.40338	  0.85610	  0.99386	  0.30406	 -0.03421	  1.27083	705.35101	 24.70	
 11.903	114.597	  1.21145	  0.45403	  0.80073	  1.02979	  0.27907	 -0.03429	  1.27486	705.40900	 24.80	
 11.893	106.346	  1.20635	  0.50840	  0.73496	  1.04923	  0.25971	 -0.03476	  1.26949	705.41998	 24.70	
 11.892	 98.155	  1.20472	  0.56616	  0.67069	  1.06224	  0.24760	 -0.03488	  1.26792	705.31097	 24.70	
 11.900	 90.000	  1.21345	  0.63217	  0.61173	  1.07490	  0.24454	 -0.03450	  1.27730	705.39301	 24.70	
 11.892	 81.845	  1.20501	  0.69039	  0.54656	  1.06248	  0.24659	 -0.03300	  1.26850	705.39502	 24.70	
 11.893	 73.654	  1.20643	  0.75430	  0.48852	  1.04881	  0.25794	 -0.03209	  1.27052	705.32300	 24.70	
 11.903	 65.403	  1.20487	  0.81437	  0.43178	  1.02416	  0.27346	 -0.03270	  1.26955	705.37799	 24.70	
 11.897	 57.268	  1.20595	  0.87284	  0.38141	  0.99181	  0.29822	 -0.03387	  1.27190	705.30798	 24.70	
 11.894	 49.133	  1.20337	  0.92397	  0.33571	  0.94805	  0.32929	 -0.03424	  1.26968	705.39502	 24.70	
 11.902	 40.852	  1.19871	  0.96776	  0.29487	  0.89703	  0.36484	 -0.03371	  1.26620	705.18402	 24.70	
 11.909	 32.701	  1.20311	  1.01167	  0.26376	  0.84769	  0.40966	 -0.03368	  1.27135	705.44702	 24.70	
 11.889	 24.555	  1.20272	  1.04211	  0.23886	  0.78795	  0.46036	 -0.03492	  1.27170	705.34399	 24.70	
 11.890	 16.390	  1.20040	  1.06276	  0.22087	  0.72517	  0.51317	 -0.03789	  1.26824	705.32501	 24.70	
 11.899	  8.217	  1.20223	  1.07808	  0.20924	  0.66378	  0.57077	 -0.04009	  1.27230	705.31403	 24.70	
 11.900	  0.000	  1.20278	  1.08249	  0.20418	  0.59983	  0.63300	 -0.03889	  1.27346	705.33002	 24.70	
 11.899	 -8.217	  1.19841	  1.07305	  0.20705	  0.53731	  0.69295	 -0.03805	  1.27031	705.36200	 24.70	
 11.890	-16.390	  1.19963	  1.05891	  0.21905	  0.48056	  0.75605	 -0.03773	  1.27226	705.29999	 24.70	
 11.889	-24.555	  1.19247	  1.02757	  0.23540	  0.42225	  0.81263	 -0.03862	  1.26552	705.36401	 24.70	
 11.909	-32.701	  1.19263	  0.99548	  0.26035	  0.37196	  0.87139	 -0.04019	  1.26617	705.39600	 24.70	
 11.902	-40.852	  1.19622	  0.95677	  0.29332	  0.33057	  0.92668	 -0.04246	  1.27137	705.33698	 24.70	
 11.894	-49.133	  1.19312	  0.90548	  0.33126	  0.29008	  0.97315	 -0.04343	  1.26856	705.45502	 24.70	
 11.897	-57.268	  1.19451	  0.85254	  0.37584	  0.25806	  1.01493	 -0.04368	  1.27004	705.34399	 24.70	
 11.903	-65.403	  1.19384	  0.79411	  0.42596	  0.23249	  1.04850	 -0.04320	  1.27030	705.24597	 24.70	
 11.893	-73.654	  1.19331	  0.73167	  0.48125	  0.21564	  1.07126	 -0.04461	  1.27000	705.23602	 24.70	
 11.892	-81.845	  1.19421	  0.66949	  0.54091	  0.20579	  1.08713	 -0.04484	  1.27153	705.39001	 24.70	
 11.900	-90.000	  1.19263	  0.60552	  0.60164	  0.20044	  1.09185	 -0.04439	  1.27069	705.19299	 24.70	
 11.892	-98.155	  1.19173	  0.54448	  0.66411	  0.20419	  1.08710	 -0.04276	  1.27012	705.24402	 24.70	
 11.893	-106.346	  1.19293	  0.48676	  0.72784	  0.21557	  1.07420	 -0.04094	  1.26972	705.38800	 24.70	
 11.903	-114.597	  1.19931	  0.43392	  0.79366	  0.23449	  1.05745	 -0.04009	  1.27647	705.28802	 24.70	
 11.897	-122.732	  1.19559	  0.38357	  0.84931	  0.25893	  1.02179	 -0.03834	  1.27150	705.38202	 24.70	
 11.894	-130.867	  1.19426	  0.34033	  0.90176	  0.29179	  0.97972	 -0.03649	  1.26990	705.25403	 24.70	
 11.902	-139.148	  1.19651	  0.30339	  0.95205	  0.33166	  0.93365	 -0.03482	  1.27013	705.32202	 24.70	
 11.909	-147.299	  1.19850	  0.27195	  0.99402	  0.37576	  0.88240	 -0.03437	  1.27133	705.26898	 24.70	
 11.889	-155.445	  1.19814	  0.24934	  1.02535	  0.42656	  0.82397	 -0.03490	  1.26946	705.21198	 24.70	
 11.890	-163.610	  1.20436	  0.23421	  1.05442	  0.48402	  0.76620	 -0.03551	  1.27383	705.30798	 24.70	
 11.899	-171.783	  1.20074	  0.22419	  1.06478	  0.54101	  0.70194	 -0.03584	  1.26988	705.31403	 24.70	
 11.900	180.000	  1.20843	  0.22353	  1.07643	  0.60653	  0.64422	 -0.03520	  1.27725	705.18201	 24.70	
 13.600	180.000	  1.18207	  0.15136	  1.11975	  0.58280	  0.62084	 -0.04434	  1.27977	705.34698	 24.70	
 13.608	-172.853	  1.17943	  0.15141	  1.11405	  0.52103	  0.68078	 -0.04495	  1.27788	705.30603	 24.70	
 13.611	-165.583	  1.17971	  0.15912	  1.10264	  0.46135	  0.74455	 -0.04688	  1.28051	705.26300	 24.70	
 13.601	-158.353	  1.16948	  0.17259	  1.07177	  0.40106	  0.80063	 -0.04468	  1.26954	705.25201	 24.70	
 13.609	-151.210	  1.17221	  0.19345	  1.04506	  0.35146	  0.86129	 -0.04259	  1.27282	705.20697	 24.70	
 13.611	-143.999	  1.17030	  0.21933	  1.00749	  0.30363	  0.91673	 -0.04389	  1.27307	705.19299	 24.70	
 13.601	-136.825	  1.17012	  0.25124	  0.96395	  0.26150	  0.96885	 -0.04510	  1.27470	705.31403	 24.70	
 13.596	-129.640	  1.17029	  0.28957	  0.91439	  0.22343	  1.01621	 -0.04619	  1.27608	705.27197	 24.70	
