FileType=PCF
NHL=14
Date=08/29/17	18:52:49
Facility=APL
Serial=16328-16
Customer=NASA
NP=6
Mach=0.250000
Calibration=1:1
CalPts=490
TstPts=95
PortNumbering=AP Standard
Units=Torr C m/s kg/m^3 deg mm 
Theta[deg]	Phi[deg]	P1[Torr]	P2[Torr]	P3[Torr]	P4[Torr]	P5[Torr]	P6[Torr]	Pt[Torr]	Ps[Abs,Torr]	Ts[C]	
  0.000	  0.000	 30.75834	 16.57089	 16.46235	 16.44192	 17.19542	  0.28802	 30.71476	706.20001	 25.10	
  1.691	128.401	 30.72462	 15.67239	 17.44122	 17.60098	 15.92689	  0.28363	 30.67389	706.78003	 25.10	
  1.692	 77.194	 30.68371	 16.84577	 16.01121	 17.89145	 15.59084	  0.28200	 30.64100	706.42902	 25.00	
  1.699	 26.182	 30.71039	 17.91016	 15.00163	 17.09063	 16.37728	  0.26342	 30.66342	705.28003	 25.00	
  1.699	-26.182	 30.70773	 17.86922	 15.01154	 15.68229	 17.77268	  0.26385	 30.66237	704.61603	 25.00	
  1.692	-77.194	 30.73322	 16.79928	 16.07273	 14.84018	 18.59647	  0.26496	 30.69711	706.69202	 25.00	
  1.691	-128.401	 30.72584	 15.59862	 17.47541	 15.10733	 18.33770	  0.27253	 30.68298	704.65802	 25.00	
  1.700	180.000	 30.68142	 15.04213	 18.03390	 16.34066	 17.12883	  0.28843	 30.63955	704.63599	 25.00	
  3.400	180.000	 30.64589	 13.39610	 19.41311	 16.19724	 17.00836	  0.22674	 30.64771	706.71802	 25.00	
  3.388	-152.325	 30.65539	 13.70330	 19.15216	 14.74590	 18.42364	  0.23023	 30.67717	704.62402	 25.00	
  3.397	-124.529	 30.62866	 14.63348	 18.17305	 13.56277	 19.46873	  0.20801	 30.64636	706.15503	 25.00	
  3.399	-96.763	 30.62674	 15.94326	 16.71378	 12.96854	 19.93751	  0.15399	 30.65197	704.64697	 25.00	
  3.394	-69.283	 30.57551	 17.30395	 15.15210	 13.16027	 19.72490	  0.18318	 30.60122	705.13098	 25.00	
  3.400	-41.398	 30.62864	 18.62263	 13.95318	 14.13457	 18.91733	  0.19011	 30.64709	705.75800	 25.00	
  3.401	-14.021	 30.65238	 19.37338	 13.27332	 15.48659	 17.66506	  0.20216	 30.66794	705.16498	 25.00	
  3.401	 14.021	 30.66057	 19.40855	 13.24279	 17.02705	 16.16206	  0.20723	 30.66663	705.57501	 25.00	
  3.400	 41.398	 30.65132	 18.73490	 13.89788	 18.34671	 14.92169	  0.21549	 30.65039	706.72101	 25.00	
  3.394	 69.283	 30.65372	 17.51088	 15.14875	 19.21000	 14.11775	  0.22597	 30.64956	706.76300	 25.00	
  3.399	 96.763	 30.66937	 16.15017	 16.74761	 19.37278	 13.97487	  0.22851	 30.66340	706.82599	 25.00	
  3.397	124.529	 30.62348	 14.77082	 18.12873	 18.82929	 14.48059	  0.22219	 30.62040	706.75500	 25.00	
  3.388	152.325	 30.66892	 13.79713	 19.12054	 17.68140	 15.61008	  0.23112	 30.65976	704.78497	 25.00	
  5.099	161.165	 30.50998	 11.88963	 20.57620	 17.51671	 15.35593	  0.09921	 30.64433	704.98102	 25.00	
  5.109	142.013	 30.52872	 12.67733	 19.86073	 18.91897	 14.03439	  0.11006	 30.65814	706.74902	 25.00	
  5.095	123.033	 30.53565	 13.83033	 18.70913	 19.98495	 13.03117	  0.07192	 30.65939	704.54498	 25.00	
  5.105	104.191	 30.45777	 15.17056	 17.28389	 20.56245	 12.36812	  0.10382	 30.57824	704.56799	 25.00	
  5.093	 85.207	 30.51282	 16.63938	 15.64602	 20.73613	 12.21735	  0.12324	 30.64456	704.65198	 25.00	
  5.104	 66.290	 30.52621	 18.09195	 14.20969	 20.38896	 12.57675	  0.09173	 30.66364	704.84399	 25.00	
  5.094	 47.331	 30.47670	 19.36585	 12.90497	 19.50240	 13.37737	  0.10008	 30.61508	704.51801	 25.00	
  5.089	 28.397	 30.46835	 20.32800	 11.88974	 18.23509	 14.51206	  0.07936	 30.62156	706.69501	 25.10	
  5.096	  9.576	 30.46212	 20.83722	 11.31540	 16.80757	 15.86022	  0.06336	 30.62274	704.65002	 25.00	
  5.096	 -9.576	 30.45455	 20.79478	 11.33731	 15.21272	 17.41522	  0.03018	 30.62676	704.67200	 25.00	
  5.089	-28.397	 30.44067	 20.24248	 11.84326	 13.71536	 18.81637	  0.06821	 30.62204	704.70398	 25.00	
  5.094	-47.331	 30.42156	 19.19068	 12.88483	 12.43435	 19.96848	 -0.02235	 30.61913	704.62500	 25.10	
  5.104	-66.290	 30.42089	 17.83885	 14.18551	 11.66335	 20.89024	 -0.04519	 30.62591	704.67798	 25.00	
  5.093	-85.207	 30.45662	 16.40604	 15.65152	 11.33664	 21.32309	  0.03410	 30.66299	704.60999	 25.00	
  5.105	-104.191	 30.42193	 14.93469	 17.25210	 11.42595	 21.18619	 -0.02345	 30.62900	705.43701	 25.00	
  5.095	-123.033	 30.38068	 13.58713	 18.64872	 11.95755	 20.50789	  0.08187	 30.57270	706.82501	 25.00	
  5.109	-142.013	 30.41978	 12.49474	 19.76795	 12.89807	 19.54698	  0.03926	 30.59541	704.60199	 25.00	
  5.099	-161.165	 30.46129	 11.80501	 20.51593	 14.44155	 18.26509	  0.05626	 30.62030	706.72601	 25.00	
  5.100	180.000	 30.45192	 11.57804	 20.72600	 15.95479	 16.75753	  0.12886	 30.59946	706.73999	 25.00	
  6.800	180.000	 30.20895	  9.79887	 22.05750	 15.65022	 16.47160	 -0.02017	 30.61636	704.62500	 25.00	
  6.796	-166.229	 30.17230	  9.91261	 21.84000	 14.09978	 17.93908	 -0.11968	 30.60077	706.69000	 25.00	
  6.808	-152.311	 30.17498	 10.35145	 21.26708	 12.55122	 19.31210	 -0.13078	 30.61857	704.63501	 25.00	
  6.795	-138.383	 30.15519	 11.11958	 20.45444	 11.47025	 20.49042	 -0.14594	 30.61416	706.78302	 25.00	
  6.792	-124.591	 30.13543	 12.22152	 19.33901	 10.62468	 21.53659	 -0.16707	 30.61676	706.59497	 25.00	
  6.787	-110.754	 30.11951	 13.50475	 17.99463	  9.97082	 22.22314	 -0.20571	 30.61946	705.76703	 25.00	
  6.800	-96.985	 30.10688	 14.89843	 16.43398	  9.66065	 22.55801	 -0.25290	 30.61486	706.65698	 25.00	
  6.800	-83.015	 30.15522	 16.38001	 14.96111	  9.66357	 22.58205	 -0.26913	 30.66183	706.07397	 25.00	
  6.787	-69.246	 30.14580	 17.82476	 13.50486	  9.99742	 22.18709	 -0.26753	 30.64105	704.51099	 25.00	
  6.792	-55.409	 30.13086	 19.22100	 12.08286	 10.58559	 21.44192	 -0.25890	 30.62695	704.48602	 25.00	
  6.795	-41.617	 30.13805	 20.43160	 11.03407	 11.51787	 20.32053	 -0.22236	 30.61254	704.55200	 25.00	
  6.808	-27.689	 30.15570	 21.40040	 10.26672	 12.60516	 19.14981	 -0.18402	 30.61797	704.53699	 25.00	
  6.796	-13.771	 30.15943	 21.97873	  9.76591	 14.10384	 17.75090	 -0.15576	 30.61435	704.69800	 25.00	
  6.800	  0.000	 30.19923	 22.21761	  9.60204	 15.67571	 16.29825	 -0.15157	 30.63374	704.62799	 25.00	
  6.796	 13.771	 30.15386	 22.04296	  9.71211	 17.15488	 14.84145	 -0.08375	 30.58299	704.63599	 25.00	
  6.808	 27.689	 30.20805	 21.55465	 10.21531	 18.63008	 13.49952	 -0.09636	 30.63002	704.66400	 25.00	
  6.795	 41.617	 30.21395	 20.68019	 10.97306	 19.90072	 12.31272	 -0.04519	 30.62177	704.59998	 25.00	
  6.792	 55.409	 30.17372	 19.43549	 12.16476	 20.88841	 11.26393	 -0.07947	 30.56473	704.63300	 25.00	
  6.787	 69.246	 30.27540	 18.13450	 13.55318	 21.66680	 10.71661	 -0.08538	 30.66058	706.59698	 25.00	
  6.800	 83.015	 30.25265	 16.70013	 14.97658	 21.97582	 10.40775	 -0.10499	 30.62402	704.62701	 25.00	
  6.800	 96.985	 30.26420	 15.32149	 16.45143	 21.98622	 10.41105	 -0.06034	 30.63246	704.72803	 25.00	
  6.787	110.754	 30.24395	 13.87886	 18.02911	 21.54807	 10.73005	 -0.13330	 30.61469	704.63501	 25.00	
  6.792	124.591	 30.26957	 12.56385	 19.38650	 20.91065	 11.38974	 -0.12127	 30.62692	704.51801	 25.00	
  6.795	138.383	 30.28774	 11.44537	 20.50683	 19.90720	 12.49764	 -0.09689	 30.65003	704.85303	 25.00	
  6.808	152.311	 30.26068	 10.52828	 21.31628	 18.60644	 13.70910	 -0.07260	 30.62968	704.78003	 25.00	
  6.796	166.229	 30.25749	 10.02486	 21.87612	 17.17916	 15.08145	 -0.09982	 30.64537	705.69299	 25.00	
  8.491	168.704	 29.85224	  8.33029	 23.13203	 16.81009	 14.62920	 -0.33032	 30.60941	704.64899	 25.00	
  8.502	157.493	 29.86757	  8.73704	 22.69915	 18.23407	 13.18562	 -0.32135	 30.62483	705.39001	 25.00	
  8.494	146.194	 29.91417	  9.40799	 21.95490	 19.70193	 11.80231	 -0.32051	 30.63807	704.74500	 25.00	
  8.495	135.039	 29.88704	 10.19208	 20.97519	 20.89301	 10.67217	 -0.33746	 30.61656	704.58301	 25.00	
  8.487	123.723	 29.90090	 11.39554	 19.81241	 21.85409	  9.88459	 -0.36128	 30.62129	704.53699	 25.00	
  8.492	112.575	 29.91848	 12.71165	 18.48400	 22.64245	  9.30464	 -0.39302	 30.63240	704.53998	 25.00	
  8.510	101.220	 29.87019	 14.16963	 16.95957	 23.08022	  8.88345	 -0.37578	 30.58709	705.08801	 25.00	
  8.500	 90.000	 29.91966	 15.67001	 15.35928	 23.26811	  8.75052	 -0.36177	 30.64045	704.75201	 25.00	
  8.510	 78.780	 29.87094	 17.07333	 13.78403	 23.10215	  8.82231	 -0.33904	 30.60466	704.67499	 25.00	
  8.492	 67.425	 29.84300	 18.53409	 12.23720	 22.60871	  9.19691	 -0.31224	 30.58667	704.68903	 25.00	
  8.487	 56.277	 29.91358	 19.96305	 10.92878	 21.89801	  9.81672	 -0.28554	 30.68083	704.60199	 25.00	
  8.495	 44.961	 29.85379	 21.20493	  9.86582	 20.89075	 10.56634	 -0.30075	 30.63515	704.62799	 25.00	
  8.494	 33.806	 29.82433	 22.16381	  9.01566	 19.67954	 11.51041	 -0.30946	 30.62320	704.59100	 25.00	
  8.502	 22.507	 29.81116	 22.91001	  8.36714	 18.25429	 12.91599	 -0.34339	 30.61562	704.61102	 25.00	
  8.491	 11.296	 29.79176	 23.32999	  7.95487	 16.80517	 14.35703	 -0.37245	 30.59868	704.61102	 25.00	
  8.500	  0.000	 29.79067	 23.47048	  7.84454	 15.22835	 15.87374	 -0.38310	 30.61345	704.63202	 25.00	
  8.491	-11.296	 29.79800	 23.29024	  7.99988	 13.61566	 17.29663	 -0.39025	 30.63296	704.65198	 25.00	
  8.502	-22.507	 29.73596	 22.75985	  8.40912	 12.17179	 18.79904	 -0.40690	 30.58564	704.65900	 25.00	
  8.494	-33.806	 29.76370	 21.98900	  9.00220	 10.91117	 20.11420	 -0.43541	 30.63346	705.39801	 25.00	
  8.495	-44.961	 29.73919	 20.93114	  9.84936	  9.85566	 21.41269	 -0.48985	 30.62428	704.68701	 25.00	
  8.487	-56.277	 29.72000	 19.63396	 10.89541	  8.99724	 22.39973	 -0.52796	 30.61142	704.73700	 25.00	
  8.492	-67.425	 29.72048	 18.22080	 12.08758	  8.41556	 23.13292	 -0.53912	 30.62045	704.58002	 25.00	
  8.510	-78.780	 29.72561	 16.69676	 13.74987	  8.00378	 23.65553	 -0.54785	 30.63247	704.67297	 25.00	
  8.500	-90.000	 29.69204	 15.22122	 15.25949	  7.87999	 23.79945	 -0.52848	 30.59415	704.51099	 25.00	
  8.510	-101.220	 29.70348	 13.73804	 16.79597	  8.00709	 23.67299	 -0.50590	 30.61029	704.67999	 25.00	
  8.492	-112.575	 29.72135	 12.28298	 18.39020	  8.40394	 23.21911	 -0.43590	 30.61582	704.54901	 25.00	
  8.487	-123.723	 29.72288	 10.97333	 19.72034	  9.00257	 22.50234	 -0.38956	 30.60404	704.78198	 25.00	
  8.495	-135.039	 29.76595	  9.90137	 20.91507	  9.88153	 21.57557	 -0.35288	 30.63450	704.71198	 25.00	
  8.494	-146.194	 29.77497	  9.11918	 21.88228	 10.94475	 20.28541	 -0.35425	 30.61926	706.90399	 25.00	
  8.502	-157.493	 29.81613	  8.56547	 22.66963	 12.12876	 19.04569	 -0.34777	 30.63745	704.75098	 25.00	
  8.491	-168.704	 29.82668	  8.24996	 23.12187	 13.54946	 17.62287	 -0.33452	 30.62454	706.73999	 25.00	
  8.500	180.000	 29.86235	  8.15825	 23.31248	 15.23825	 16.12852	 -0.33393	 30.63456	704.72803	 25.00	
 10.200	180.000	 29.31768	  6.41651	 24.44502	 14.68752	 15.63906	 -0.58152	 30.58995	704.59601	 25.00	
 10.191	-170.497	 29.34186	  6.53839	 24.32540	 13.02685	 17.10738	 -0.59889	 30.63014	704.59998	 25.00	
 10.210	-161.034	 29.27944	  6.76435	 23.88567	 11.66460	 18.61978	 -0.59837	 30.59469	704.61798	 25.00	
 10.194	-151.526	 29.25275	  7.21226	 23.21198	 10.38523	 19.93532	 -0.58289	 30.58216	704.76801	 25.00	
 10.190	-142.105	 29.25179	  7.87178	 22.35052	  9.21068	 21.31243	 -0.57918	 30.61758	704.72803	 25.00	
 10.215	-132.646	 29.19669	  8.67697	 21.22094	  8.16193	 22.43819	 -0.57515	 30.58125	704.68298	 25.00	
 10.203	-123.092	 29.17633	  9.72083	 20.03461	  7.31394	 23.42931	 -0.61927	 30.57949	705.44098	 25.00	
 10.192	-113.678	 29.19662	 10.99674	 18.68462	  6.70602	 24.20809	 -0.67476	 30.61841	704.68298	 25.00	
 10.208	-104.249	 29.15231	 12.38188	 17.16455	  6.23169	 24.70913	 -0.75401	 30.59500	704.63300	 25.00	
 10.210	-94.801	 29.15413	 13.95402	 15.56375	  5.98978	 24.97356	 -0.81275	 30.60256	704.71100	 25.00	
 10.210	-85.199	 29.13506	 15.45866	 13.93358	  6.00056	 24.94265	 -0.83938	 30.58406	704.59998	 25.00	
 10.208	-75.751	 29.16081	 16.95471	 12.24128	  6.22676	 24.66252	 -0.83862	 30.60769	704.71399	 25.00	
 10.192	-66.322	 29.16780	 18.47681	 10.92120	  6.67897	 24.09500	 -0.81693	 30.59206	704.74298	 25.00	
 10.203	-56.908	 29.19494	 19.94351	  9.70844	  7.27594	 23.32186	 -0.78925	 30.61950	704.68701	 25.00	
 10.215	-47.354	 29.14700	 21.25058	  8.57181	  8.12178	 22.26706	 -0.75079	 30.55505	704.74902	 25.00	
 10.190	-37.895	 29.21826	 22.42135	  7.70504	  9.16754	 21.09736	 -0.71147	 30.61329	704.69397	 25.00	
 10.194	-28.474	 29.23491	 23.35126	  7.00540	 10.33639	 19.76062	 -0.67393	 30.60191	704.85498	 24.90	
 10.210	-18.966	 29.25099	 24.05902	  6.50377	 11.63906	 18.37250	 -0.66434	 30.60132	705.46600	 25.00	
 10.191	 -9.503	 29.27337	 24.47856	  6.17690	 12.98666	 16.83447	 -0.64826	 30.59820	704.75098	 25.00	
 10.200	  0.000	 29.29406	 24.66032	  5.99735	 14.68725	 15.36810	 -0.63855	 30.60823	704.72601	 24.90	
 10.191	  9.503	 29.30573	 24.55944	  6.08005	 16.33668	 13.80298	 -0.63948	 30.61399	704.74597	 25.00	
 10.210	 18.966	 29.31878	 24.21613	  6.39085	 17.84310	 12.23028	 -0.62938	 30.62481	704.62402	 25.00	
 10.194	 28.474	 29.28803	 23.52846	  7.01251	 19.25569	 10.91912	 -0.59100	 30.58581	704.80701	 25.00	
 10.190	 37.895	 29.32773	 22.67582	  7.75010	 20.62968	  9.90313	 -0.55151	 30.61460	704.78198	 25.00	
 10.215	 47.354	 29.31643	 21.58786	  8.63380	 21.76765	  8.91583	 -0.54694	 30.59975	704.76501	 25.00	
 10.203	 56.908	 29.34730	 20.31152	  9.72450	 22.78904	  8.11616	 -0.53935	 30.60117	704.64899	 25.00	
 10.192	 66.322	 29.37625	 18.89929	 10.94884	 23.56168	  7.53278	 -0.54847	 30.60647	704.75201	 25.00	
 10.208	 75.751	 29.36028	 17.39235	 12.35415	 24.09482	  7.11445	 -0.56858	 30.57879	704.57599	 25.00	
 10.210	 85.199	 29.35201	 15.94383	 13.99445	 24.36464	  6.90452	 -0.62290	 30.56452	704.73401	 25.00	
 10.210	 94.801	 29.41234	 14.46583	 15.62598	 24.39690	  6.96378	 -0.66754	 30.61606	704.69702	 25.00	
 10.208	104.249	 29.42639	 12.95757	 17.26003	 24.12448	  7.21363	 -0.68932	 30.61946	704.64398	 25.00	
 10.192	113.678	 29.44391	 11.44933	 18.73950	 23.58240	  7.68908	 -0.66195	 30.62159	704.82098	 25.00	
 10.203	123.092	 29.40281	 10.14347	 20.09773	 22.81079	  8.28005	 -0.63129	 30.58936	704.81299	 25.00	
 10.215	132.646	 29.40857	  9.09410	 21.31262	 21.81818	  9.08798	 -0.59513	 30.60283	704.82202	 25.00	
 10.190	142.105	 29.41298	  8.19717	 22.41851	 20.65479	 10.08287	 -0.56962	 30.61324	704.80499	 25.00	
 10.194	151.526	 29.37787	  7.48045	 23.29021	 19.29843	 11.14340	 -0.56655	 30.58946	704.69397	 25.00	
 10.210	161.034	 29.38539	  6.91752	 23.97433	 17.84557	 12.61245	 -0.56548	 30.61638	704.67999	 25.00	
 10.191	170.497	 29.36447	  6.58905	 24.33664	 16.35262	 14.12113	 -0.56402	 30.60773	704.56897	 25.00	
 11.899	171.783	 28.75785	  4.76377	 25.46342	 15.77900	 13.52232	 -0.80889	 30.60342	704.75201	 25.00	
 11.890	163.610	 28.76379	  5.08857	 25.10750	 17.32137	 11.91742	 -0.80128	 30.57926	704.78400	 25.00	
 11.889	155.445	 28.79670	  5.55083	 24.55462	 18.78325	 10.61243	 -0.79953	 30.58499	704.70898	 25.00	
 11.909	147.299	 28.84493	  6.14107	 23.80670	 20.26947	  9.45833	 -0.80806	 30.63040	704.77698	 25.00	
 11.902	139.148	 28.82230	  6.93278	 22.78041	 21.51394	  8.32962	 -0.81133	 30.60496	704.82397	 25.00	
 11.894	130.867	 28.86255	  7.94492	 21.59814	 22.70685	  7.39811	 -0.84177	 30.62657	704.97400	 25.00	
 11.897	122.732	 28.84022	  9.01911	 20.35613	 23.68360	  6.59911	 -0.89206	 30.60251	704.72101	 25.00	
 11.903	114.597	 28.85110	 10.17648	 18.94316	 24.51239	  5.97795	 -0.94394	 30.62839	704.86298	 25.00	
 11.893	106.346	 28.87601	 11.59313	 17.47998	 25.10513	  5.53355	 -0.97774	 30.64424	704.72101	 25.00	
 11.892	 98.155	 28.83285	 13.17223	 15.86452	 25.41857	  5.22668	 -0.96901	 30.61232	704.82703	 24.90	
 11.900	 90.000	 28.83226	 14.69873	 14.24162	 25.54128	  5.10337	 -0.93161	 30.61524	704.75098	 25.00	
 11.892	 81.845	 28.79319	 16.17565	 12.58363	 25.37960	  5.21130	 -0.86168	 30.57773	704.93201	 25.00	
 11.893	 73.654	 28.82129	 17.67241	 11.11298	 25.04705	  5.46128	 -0.79850	 30.62293	704.83899	 25.00	
 11.903	 65.403	 28.79270	 19.18990	  9.72490	 24.44784	  5.85024	 -0.75934	 30.62287	704.80701	 25.00	
 11.897	 57.268	 28.72874	 20.57806	  8.51749	 23.57922	  6.43611	 -0.76069	 30.56698	704.66998	 25.00	
 11.894	 49.133	 28.69997	 21.86741	  7.44758	 22.57427	  7.20551	 -0.76488	 30.56253	704.95599	 25.00	
 11.902	 40.852	 28.68538	 23.03374	  6.48475	 21.45693	  8.12293	 -0.79481	 30.56997	704.89398	 25.00	
 11.909	 32.701	 28.70664	 24.02755	  5.69648	 20.20875	  9.21767	 -0.83222	 30.60390	704.75098	 25.00	
 11.889	 24.555	 28.70694	 24.78010	  5.07201	 18.71849	 10.38256	 -0.86677	 30.60094	704.92902	 25.00	
 11.890	 16.390	 28.69986	 25.32425	  4.62215	 17.29714	 11.60642	 -0.90218	 30.60546	704.92297	 25.00	
 11.899	  8.217	 28.69122	 25.65775	  4.20462	 15.75682	 13.14976	 -0.90929	 30.61388	704.89801	 25.00	
 11.900	  0.000	 28.67995	 25.72945	  4.19957	 13.95786	 14.74635	 -0.89322	 30.59556	704.79700	 25.00	
 11.899	 -8.217	 28.65666	 25.57779	  4.30782	 12.47939	 16.28712	 -0.88239	 30.58134	704.81598	 25.00	
 11.890	-16.390	 28.66172	 25.21423	  4.61794	 11.10521	 17.80054	 -0.88231	 30.60139	704.91101	 25.00	
 11.889	-24.555	 28.61050	 24.58462	  5.00928	  9.74643	 19.23879	 -0.89025	 30.58652	704.88702	 25.00	
 11.909	-32.701	 28.58933	 23.76785	  5.60427	  8.49217	 20.61538	 -0.91420	 30.58709	704.89398	 25.00	
 11.902	-40.852	 28.59940	 22.76010	  6.40115	  7.38737	 21.96267	 -0.94295	 30.61185	704.86700	 25.00	
 11.894	-49.133	 28.56344	 21.52306	  7.36089	  6.39430	 23.11118	 -0.98854	 30.59847	704.93402	 25.00	
 11.897	-57.268	 28.55544	 20.17797	  8.48028	  5.57835	 24.13623	 -1.03208	 30.60461	704.84601	 25.00	
 11.903	-65.403	 28.55845	 18.71889	  9.71508	  4.95974	 24.95894	 -1.06073	 30.62349	704.94501	 25.00	
 11.893	-73.654	 28.52919	 17.16039	 11.01981	  4.53927	 25.51943	 -1.06768	 30.58355	704.94800	 25.00	
 11.892	-81.845	 28.54165	 15.64558	 12.43981	  4.28620	 25.88509	 -1.06079	 30.59611	704.93402	 25.00	
 11.900	-90.000	 28.53345	 14.14608	 14.10587	  4.16601	 26.03104	 -1.04375	 30.60344	704.83002	 25.00	
 11.892	-98.155	 28.52840	 12.54096	 15.72797	  4.28512	 25.92997	 -1.01712	 30.59598	704.85199	 25.00	
 11.893	-106.346	 28.56585	 11.09809	 17.34500	  4.58587	 25.63756	 -0.97380	 30.62593	704.82898	 25.00	
 11.903	-114.597	 28.56439	  9.71571	 18.89854	  5.00968	 25.08915	 -0.90648	 30.62560	704.88397	 25.00	
 11.897	-122.732	 28.55088	  8.53390	 20.23539	  5.63085	 24.27861	 -0.83298	 30.58341	704.82098	 25.00	
 11.894	-130.867	 28.62581	  7.52599	 21.50947	  6.47701	 23.34298	 -0.79362	 30.64047	704.77301	 24.90	
 11.902	-139.148	 28.65483	  6.66349	 22.69988	  7.45060	 22.19361	 -0.79421	 30.63856	704.91101	 25.00	
 11.909	-147.299	 28.63614	  5.90946	 23.67120	  8.54137	 20.89668	 -0.82372	 30.59842	704.84698	 25.00	
 11.889	-155.445	 28.70738	  5.36567	 24.49967	  9.80326	 19.56995	 -0.84463	 30.63604	704.93701	 24.90	
 11.890	-163.610	 28.72298	  4.97040	 25.07273	 11.17696	 18.06723	 -0.87081	 30.62767	704.80798	 24.90	
 11.899	-171.783	 28.79048	  4.73289	 25.49128	 12.52486	 16.64144	 -0.86266	 30.67737	704.91498	 25.00	
 11.900	180.000	 28.73334	  4.64816	 25.55854	 14.01283	 15.09102	 -0.84108	 30.59838	704.83197	 25.00	
 13.600	180.000	 28.05482	  2.86691	 26.58036	 13.39756	 14.45788	 -1.08509	 30.61507	704.90100	 25.00	
 13.608	-172.853	 28.03100	  2.88550	 26.48056	 11.97723	 15.98644	 -1.10676	 30.62510	704.94800	 25.00	
 13.611	-165.583	 28.01840	  3.09414	 26.15861	 10.55644	 17.42990	 -1.12009	 30.63405	704.77002	 25.00	
 13.601	-158.353	 27.97331	  3.43769	 25.61853	  9.15895	 18.96811	 -1.11139	 30.61542	704.93103	 25.00	
 13.609	-151.210	 27.95795	  3.91769	 24.91065	  7.87977	 20.33679	 -1.06714	 30.62830	704.96198	 25.00	
 13.611	-143.999	 27.92826	  4.57818	 23.99300	  6.71733	 21.69642	 -1.03123	 30.62336	704.91101	 25.00	
 13.601	-136.825	 27.89836	  5.37658	 22.90040	  5.65321	 22.96134	 -0.99265	 30.62201	704.94800	 25.00	
 13.596	-129.640	 27.87376	  6.30470	 21.65020	  4.73336	 24.09010	 -0.98704	 30.61903	704.95300	 25.00	
