FileType=PCF
NHL=14
Date=10/25/18	14:30:44
Facility=APL
Serial=16328-17
Customer=NASA
NP=6
Mach=0.250000
Calibration=1:1
CalPts=490
TstPts=95
PortNumbering=AP Standard
Units=Torr C m/s kg/m^3 deg mm 
Theta[deg]	Phi[deg]	P1[Torr]	P2[Torr]	P3[Torr]	P4[Torr]	P5[Torr]	P6[Torr]	Pt[Torr]	Ps[Abs,Torr]	Ts[C]	
  0.000	  0.000	 30.06437	 15.97080	 15.03132	 15.79990	 15.21232	  0.20435	 30.04277	709.48499	 18.30	
  1.691	128.401	 29.77037	 14.74992	 15.77194	 16.86577	 13.80001	  0.19408	 29.75831	708.60400	 22.40	
  1.692	 77.194	 29.77576	 16.10563	 14.50343	 17.14526	 13.50920	  0.18892	 29.76850	708.60602	 22.40	
  1.699	 26.182	 29.83341	 17.22572	 13.50817	 16.29135	 14.37156	  0.18409	 29.82956	708.60699	 22.40	
  1.699	-26.182	 29.75230	 17.20387	 13.45770	 14.86529	 15.72241	  0.16637	 29.75237	708.62097	 22.40	
  1.692	-77.194	 29.73924	 16.07192	 14.53454	 14.07551	 16.55859	  0.16784	 29.73053	708.64502	 22.40	
  1.691	-128.401	 29.79821	 14.75839	 15.79393	 14.42387	 16.28113	  0.18363	 29.78135	708.66400	 22.40	
  1.700	180.000	 29.78639	 14.18808	 16.37374	 15.65332	 15.01989	  0.19272	 29.77303	708.62903	 22.40	
  3.400	180.000	 29.77113	 12.61477	 17.96511	 15.57487	 14.91971	  0.15357	 29.77904	708.64801	 22.40	
  3.388	-152.325	 29.76012	 12.90176	 17.60666	 14.13079	 16.38450	  0.15210	 29.76699	708.72601	 22.40	
  3.397	-124.529	 29.77244	 13.85728	 16.53948	 12.99835	 17.59000	  0.13407	 29.78264	708.65601	 22.40	
  3.399	-96.763	 29.77825	 15.22058	 15.18185	 12.52858	 18.11838	  0.11585	 29.81388	708.57898	 22.40	
  3.394	-69.283	 29.70677	 16.67449	 13.70869	 12.61791	 17.87914	  0.09530	 29.76011	708.61700	 22.40	
  3.400	-41.398	 29.66352	 17.96338	 12.52449	 13.34648	 16.94897	  0.08227	 29.73077	708.65302	 22.40	
  3.401	-14.021	 29.68442	 18.69332	 11.89877	 14.62862	 15.59540	  0.08854	 29.76867	708.64801	 22.40	
  3.401	 14.021	 29.69209	 18.74501	 11.86134	 16.14512	 14.06667	  0.11628	 29.78274	708.62299	 22.40	
  3.400	 41.398	 29.70195	 18.05277	 12.45924	 17.50960	 12.80563	  0.12489	 29.78941	708.67700	 22.40	
  3.394	 69.283	 29.67482	 16.73667	 13.61622	 18.41638	 12.00916	  0.13442	 29.73912	708.66302	 22.40	
  3.399	 96.763	 29.71176	 15.24638	 15.04114	 18.65714	 11.84920	  0.13409	 29.75542	708.63300	 22.50	
  3.397	124.529	 29.76475	 13.89060	 16.43757	 18.18225	 12.37445	  0.14801	 29.79080	708.68701	 22.50	
  3.388	152.325	 29.76125	 12.92694	 17.56931	 17.02274	 13.47191	  0.15108	 29.77308	708.64801	 22.50	
  5.099	161.165	 29.65211	 11.22308	 19.11606	 16.93773	 13.22185	  0.05864	 29.78188	708.77399	 22.50	
  5.109	142.013	 29.63138	 11.88684	 18.29665	 18.35529	 11.85339	 -0.02819	 29.77202	708.63300	 22.50	
  5.095	123.033	 29.64156	 12.94931	 17.12215	 19.39338	 10.87097	 -0.04895	 29.79922	708.76501	 22.50	
  5.105	104.191	 29.63187	 14.29194	 15.60510	 20.01846	 10.31658	  0.01335	 29.82137	708.70398	 22.50	
  5.093	 85.207	 29.52115	 15.79129	 14.09721	 20.01126	 10.19086	 -0.06060	 29.73650	708.69897	 22.40	
  5.104	 66.290	 29.51167	 17.33741	 12.67438	 19.61390	 10.50967	 -0.01276	 29.75884	708.71802	 22.40	
  5.094	 47.331	 29.51549	 18.67687	 11.48823	 18.69443	 11.23445	 -0.03586	 29.78407	708.67603	 22.40	
  5.089	 28.397	 29.48817	 19.59418	 10.64254	 17.38916	 12.40688	 -0.03659	 29.76611	708.71503	 22.40	
  5.096	  9.576	 29.48770	 20.10660	 10.18663	 15.90712	 13.80213	 -0.02512	 29.76259	708.65302	 22.40	
  5.096	 -9.576	 29.48301	 20.07024	 10.24803	 14.34675	 15.35855	 -0.07630	 29.75520	708.62799	 22.40	
  5.089	-28.397	 29.50602	 19.57612	 10.68968	 12.96784	 16.88358	 -0.09728	 29.76846	708.62799	 22.40	
  5.094	-47.331	 29.54684	 18.62394	 11.60359	 11.87206	 18.16002	 -0.11355	 29.79004	708.59802	 22.40	
  5.104	-66.290	 29.55586	 17.24305	 12.85004	 11.11459	 19.08870	 -0.09687	 29.76950	708.63098	 22.40	
  5.093	-85.207	 29.58304	 15.72048	 14.27670	 10.85940	 19.50103	 -0.04024	 29.76875	708.69299	 22.40	
  5.105	-104.191	 29.61947	 14.18584	 15.74760	 11.01479	 19.38198	 -0.06044	 29.77307	708.65601	 22.40	
  5.095	-123.033	 29.66630	 12.86028	 17.26959	 11.61839	 18.75906	  0.04193	 29.80099	708.68500	 22.40	
  5.109	-142.013	 29.61888	 11.79425	 18.39964	 12.56883	 17.66322	  0.06016	 29.73553	708.60199	 22.40	
  5.099	-161.165	 29.65773	 11.20407	 19.13798	 13.90284	 16.28334	  0.06273	 29.77622	708.66302	 22.40	
  5.100	180.000	 29.64522	 10.98494	 19.37383	 15.40289	 14.72644	 -0.01664	 29.75824	708.67102	 22.40	
  6.800	180.000	 29.44293	  9.31999	 20.69493	 15.20319	 14.41604	 -0.18105	 29.77529	708.59003	 22.40	
  6.796	-166.229	 29.45571	  9.43202	 20.54773	 13.73363	 15.95631	 -0.15722	 29.78957	708.65601	 22.40	
  6.808	-152.311	 29.40917	  9.84264	 20.01804	 12.32188	 17.39862	 -0.15779	 29.74841	708.65997	 22.40	
  6.795	-138.383	 29.41037	 10.60186	 19.15890	 11.15669	 18.70040	 -0.11911	 29.76065	708.66400	 22.40	
  6.792	-124.591	 29.41114	 11.62232	 18.01270	 10.20731	 19.74781	 -0.18714	 29.77932	708.61200	 22.40	
  6.787	-110.754	 29.41813	 12.87293	 16.62121	  9.55077	 20.48683	 -0.21666	 29.81029	708.62500	 22.40	
  6.800	-96.985	 29.37954	 14.26759	 15.10396	  9.19725	 20.86510	 -0.26294	 29.80247	708.61499	 22.40	
  6.800	-83.015	 29.35390	 15.78081	 13.67291	  9.15588	 20.85164	 -0.30732	 29.80950	708.67999	 22.40	
  6.787	-69.246	 29.28116	 17.26878	 12.26482	  9.37345	 20.42971	 -0.33575	 29.76538	708.62299	 22.40	
  6.792	-55.409	 29.27905	 18.66759	 10.98840	  9.94516	 19.68427	 -0.32710	 29.79385	708.60400	 22.40	
  6.795	-41.617	 29.24437	 19.84709	  9.87633	 10.80687	 18.62355	 -0.32008	 29.79849	708.66400	 22.40	
  6.808	-27.689	 29.18725	 20.75408	  9.01470	 11.92710	 17.29126	 -0.30574	 29.75690	708.73901	 22.40	
  6.796	-13.771	 29.22135	 21.32156	  8.61095	 13.33284	 15.80610	 -0.26219	 29.79780	708.70398	 22.40	
  6.800	  0.000	 29.19855	 21.52740	  8.40067	 14.76753	 14.27806	 -0.23656	 29.79218	708.62799	 22.40	
  6.796	 13.771	 29.15058	 21.30877	  8.51763	 16.25367	 12.76624	 -0.22195	 29.74129	708.62500	 22.30	
  6.808	 27.689	 29.17684	 20.77064	  8.98105	 17.74167	 11.40013	 -0.21088	 29.76831	708.67902	 22.30	
  6.795	 41.617	 29.16228	 19.84211	  9.76322	 19.05813	 10.21311	 -0.17671	 29.73762	708.58801	 22.40	
  6.792	 55.409	 29.18041	 18.74280	 10.77467	 20.12716	  9.30512	 -0.19992	 29.74219	708.54199	 22.40	
  6.787	 69.246	 29.25678	 17.41420	 12.06802	 20.92221	  8.77020	 -0.22242	 29.78296	708.60602	 22.40	
  6.800	 83.015	 29.28176	 15.87259	 13.42584	 21.35973	  8.49652	 -0.23250	 29.77567	708.60602	 22.40	
  6.800	 96.985	 29.32868	 14.36369	 14.94714	 21.45415	  8.46913	 -0.25612	 29.80075	708.57501	 22.40	
  6.787	110.754	 29.34794	 12.96474	 16.37974	 21.09583	  8.80482	 -0.25219	 29.77484	708.67200	 22.40	
  6.792	124.591	 29.38222	 11.73373	 17.82626	 20.41527	  9.42319	 -0.22986	 29.78238	708.59601	 22.40	
  6.795	138.383	 29.41352	 10.70370	 19.01987	 19.42092	 10.36106	 -0.20451	 29.79013	708.59601	 22.40	
  6.808	152.311	 29.43398	  9.94323	 19.93241	 18.14818	 11.55311	 -0.20092	 29.78870	708.67102	 22.40	
  6.796	166.229	 29.46696	  9.48886	 20.51671	 16.70415	 12.96741	 -0.16793	 29.80844	708.64502	 22.40	
  8.491	168.704	 29.11324	  7.65755	 21.83388	 16.45210	 12.51276	 -0.40047	 29.78778	708.59802	 22.40	
  8.502	157.493	 29.10370	  8.00112	 21.34732	 17.95693	 11.07674	 -0.40914	 29.79758	708.64801	 22.40	
  8.494	146.194	 29.08215	  8.66884	 20.50196	 19.34182	  9.77988	 -0.43095	 29.79215	708.65997	 22.40	
  8.495	135.039	 29.07441	  9.53793	 19.53286	 20.54298	  8.68851	 -0.45217	 29.81307	708.70398	 22.40	
  8.487	123.723	 29.03734	 10.62934	 18.28535	 21.52883	  7.79571	 -0.48156	 29.80881	708.60901	 22.30	
  8.492	112.575	 28.99413	 11.87148	 16.83001	 22.23108	  7.15086	 -0.51416	 29.80177	708.63702	 22.30	
  8.510	101.220	 28.93071	 13.25021	 15.27634	 22.64668	  6.75299	 -0.52231	 29.77071	708.61700	 22.30	
  8.500	 90.000	 28.88157	 14.75296	 13.77079	 22.71192	  6.66556	 -0.50523	 29.75420	708.70898	 22.30	
  8.510	 78.780	 28.86393	 16.30251	 12.34575	 22.54020	  6.74178	 -0.47155	 29.78401	708.64398	 22.30	
  8.492	 67.425	 28.83204	 17.80474	 10.95491	 21.98795	  7.11852	 -0.44653	 29.78063	708.59100	 22.30	
  8.487	 56.277	 28.82290	 19.17561	  9.70886	 21.16579	  7.69133	 -0.41951	 29.78837	708.65601	 22.30	
  8.495	 44.961	 28.81728	 20.45033	  8.54429	 20.12250	  8.56035	 -0.41198	 29.81328	708.63098	 22.30	
  8.494	 33.806	 28.78065	 21.45519	  7.61941	 18.84154	  9.65054	 -0.41113	 29.80576	708.71802	 22.30	
  8.502	 22.507	 28.73686	 22.17836	  6.97729	 17.39479	 10.91750	 -0.45960	 29.76593	708.65198	 22.30	
  8.491	 11.296	 28.76299	 22.65371	  6.58918	 15.90716	 12.36039	 -0.48047	 29.79889	708.62097	 22.30	
  8.500	  0.000	 28.73751	 22.76860	  6.50834	 14.34497	 13.86965	 -0.48335	 29.76056	708.66302	 22.30	
  8.491	-11.296	 28.75331	 22.61411	  6.64766	 12.86694	 15.42373	 -0.49675	 29.77077	708.66803	 22.30	
  8.502	-22.507	 28.76750	 22.11092	  7.11220	 11.44545	 16.96743	 -0.53770	 29.76164	708.59900	 22.30	
  8.494	-33.806	 28.81268	 21.35963	  7.77907	 10.18445	 18.43413	 -0.56482	 29.79069	708.35400	 22.30	
  8.495	-44.961	 28.79723	 20.30538	  8.68274	  9.09762	 19.68153	 -0.58122	 29.75176	708.62097	 22.30	
  8.487	-56.277	 28.87018	 19.05322	  9.89061	  8.23475	 20.79523	 -0.61125	 29.79360	708.70898	 22.30	
  8.492	-67.425	 28.91697	 17.71697	 11.16916	  7.66519	 21.56757	 -0.62324	 29.81093	708.63599	 22.30	
  8.510	-78.780	 28.93734	 16.16088	 12.59785	  7.32562	 22.07564	 -0.60753	 29.80008	708.62299	 22.30	
  8.500	-90.000	 28.95851	 14.61837	 13.98786	  7.29368	 22.23025	 -0.56961	 29.77467	708.53101	 22.30	
  8.510	-101.220	 29.01105	 13.15027	 15.48864	  7.44325	 22.09162	 -0.50888	 29.79798	708.60602	 22.30	
  8.492	-112.575	 29.00892	 11.72055	 17.07604	  7.85376	 21.60007	 -0.44915	 29.76416	708.64697	 22.30	
  8.487	-123.723	 29.07381	 10.50157	 18.49638	  8.58708	 20.83472	 -0.40381	 29.79769	708.56598	 22.30	
  8.495	-135.039	 29.11367	  9.44348	 19.73100	  9.54485	 19.79099	 -0.37943	 29.81343	708.54199	 22.30	
  8.494	-146.194	 29.06574	  8.56706	 20.64541	 10.65359	 18.51521	 -0.36822	 29.74343	708.58002	 22.30	
  8.502	-157.493	 29.08381	  7.93517	 21.41544	 11.93562	 17.11010	 -0.39789	 29.75764	708.59601	 22.30	
  8.491	-168.704	 29.09564	  7.63279	 21.82997	 13.36277	 15.60132	 -0.40707	 29.74944	708.59100	 22.30	
  8.500	180.000	 29.13657	  7.51027	 22.03277	 14.91063	 14.06604	 -0.41086	 29.80611	708.59003	 22.30	
 10.200	180.000	 28.67845	  5.67039	 23.25893	 14.54390	 13.58355	 -0.66851	 29.79150	708.57898	 22.30	
 10.191	-170.497	 28.71916	  5.76539	 23.15553	 13.02106	 15.19493	 -0.66493	 29.82563	708.64801	 22.30	
 10.210	-161.034	 28.67216	  5.97775	 22.78754	 11.53152	 16.71376	 -0.65382	 29.79450	708.67102	 22.30	
 10.194	-151.526	 28.64988	  6.49054	 22.11758	 10.14845	 18.21315	 -0.61847	 29.78237	708.65302	 22.30	
 10.190	-142.105	 28.66184	  7.25009	 21.22157	  8.92091	 19.60898	 -0.59995	 29.80501	708.76001	 22.30	
 10.215	-132.646	 28.59539	  8.12977	 20.14933	  7.78205	 20.80216	 -0.60428	 29.76629	708.68298	 22.30	
 10.203	-123.092	 28.57602	  9.29758	 18.84954	  6.87568	 21.85271	 -0.62457	 29.77719	708.62799	 22.30	
 10.192	-113.678	 28.57508	 10.53079	 17.49681	  6.18645	 22.63127	 -0.66887	 29.80030	708.65503	 22.30	
 10.208	-104.249	 28.50475	 11.89667	 15.90957	  5.70785	 23.13087	 -0.72757	 29.76186	708.65198	 22.30	
 10.210	-94.801	 28.52814	 13.40635	 14.37826	  5.45273	 23.48638	 -0.81186	 29.83020	708.67999	 22.30	
 10.210	-85.199	 28.47100	 14.93287	 12.92114	  5.43327	 23.42973	 -0.86651	 29.80429	708.66101	 22.30	
 10.208	-75.751	 28.38260	 16.47543	 11.41270	  5.54228	 23.11690	 -0.90538	 29.75785	708.67999	 22.30	
 10.192	-66.322	 28.39178	 17.98761	 10.04203	  5.93522	 22.58227	 -0.90244	 29.79552	708.70099	 22.30	
 10.203	-56.908	 28.36414	 19.38214	  8.73869	  6.48938	 21.82159	 -0.88025	 29.81127	708.71997	 22.20	
 10.215	-47.354	 28.30551	 20.71507	  7.45309	  7.30384	 20.76025	 -0.84795	 29.79328	708.73102	 22.20	
 10.190	-37.895	 28.27594	 21.81027	  6.46639	  8.35452	 19.49304	 -0.82639	 29.77919	708.71802	 22.30	
 10.194	-28.474	 28.27328	 22.75395	  5.60428	  9.55537	 18.12217	 -0.80377	 29.80037	708.61499	 22.30	
 10.210	-18.966	 28.26128	 23.42814	  5.05233	 10.91257	 16.61862	 -0.77629	 29.81309	708.66901	 22.30	
 10.191	 -9.503	 28.25208	 23.80724	  4.76921	 12.35223	 15.06869	 -0.73043	 29.80130	708.64099	 22.30	
 10.200	  0.000	 28.21632	 23.94950	  4.64216	 13.87828	 13.43529	 -0.73135	 29.77024	708.69897	 22.30	
 10.191	  9.503	 28.22424	 23.86126	  4.67913	 15.43156	 11.90802	 -0.72824	 29.79449	708.71503	 22.30	
 10.210	 18.966	 28.24914	 23.46119	  4.97329	 17.00120	 10.45791	 -0.73230	 29.81571	708.66901	 22.30	
 10.194	 28.474	 28.23659	 22.84138	  5.44693	 18.46607	  9.08118	 -0.68551	 29.81069	708.71698	 22.30	
 10.190	 37.895	 28.24525	 21.96624	  6.26818	 19.81544	  7.89652	 -0.62898	 29.79399	708.73901	 22.20	
 10.215	 47.354	 28.26645	 20.88418	  7.23448	 21.06005	  6.86150	 -0.66020	 29.79940	708.66803	 22.20	
 10.203	 56.908	 28.27698	 19.56772	  8.43498	 22.13084	  5.98271	 -0.66600	 29.78927	708.68500	 22.20	
 10.192	 66.322	 28.31697	 18.17913	  9.74099	 22.92747	  5.39865	 -0.67520	 29.77810	708.70697	 22.20	
 10.208	 75.751	 28.35670	 16.69826	 11.12789	 23.55057	  5.04487	 -0.70926	 29.80166	708.75702	 22.20	
 10.210	 85.199	 28.37877	 15.11607	 12.62421	 23.86194	  4.85685	 -0.76282	 29.78256	708.68701	 22.20	
 10.210	 94.801	 28.40326	 13.55396	 14.09867	 23.91185	  4.83444	 -0.80448	 29.76859	708.67200	 22.20	
 10.208	104.249	 28.45039	 12.10586	 15.56002	 23.72093	  5.03362	 -0.80823	 29.78221	708.70300	 22.30	
 10.192	113.678	 28.50955	 10.72189	 17.15401	 23.25219	  5.46226	 -0.78506	 29.80514	708.72601	 22.30	
 10.203	123.092	 28.52245	  9.45112	 18.58741	 22.51548	  6.10527	 -0.73905	 29.77680	708.72302	 22.30	
 10.215	132.646	 28.57797	  8.30909	 19.90536	 21.56881	  6.96516	 -0.69867	 29.79488	708.68799	 22.30	
 10.190	142.105	 28.58648	  7.32382	 21.01406	 20.38922	  8.00794	 -0.67593	 29.77849	708.75000	 22.30	
 10.194	151.526	 28.60775	  6.57587	 21.93233	 19.06220	  9.21246	 -0.65777	 29.76539	708.72302	 22.30	
 10.210	161.034	 28.67510	  6.01978	 22.67502	 17.65213	 10.58292	 -0.65077	 29.81246	708.79199	 22.30	
 10.191	170.497	 28.67505	  5.75555	 23.07285	 16.10194	 12.06108	 -0.64678	 29.78834	708.81702	 22.30	
 11.899	171.783	 28.08076	  3.89522	 24.23335	 15.63263	 11.50649	 -0.87477	 29.76123	708.66101	 22.30	
 11.890	163.610	 28.10008	  4.13639	 23.85479	 17.19133	 10.05870	 -0.86662	 29.78900	708.80402	 22.30	
 11.889	155.445	 28.09034	  4.58736	 23.22899	 18.69711	  8.66757	 -0.86674	 29.79140	708.71997	 22.30	
 11.909	147.299	 28.03471	  5.18260	 22.40878	 20.08517	  7.36962	 -0.87705	 29.78431	708.79999	 22.30	
 11.902	139.148	 27.99636	  6.00085	 21.39027	 21.36067	  6.21168	 -0.89431	 29.77530	708.68799	 22.30	
 11.894	130.867	 28.01162	  7.04294	 20.19763	 22.51164	  5.26403	 -0.93369	 29.81551	708.80603	 22.30	
 11.897	122.732	 27.93410	  8.19783	 18.86564	 23.40397	  4.44247	 -0.99000	 29.76748	708.71198	 22.30	
 11.903	114.597	 27.89760	  9.45092	 17.42231	 24.14758	  3.77509	 -1.04175	 29.78086	708.70099	 22.30	
 11.893	106.346	 27.86792	 10.85773	 15.84510	 24.64968	  3.37016	 -1.07642	 29.78222	708.71997	 22.30	
 11.892	 98.155	 27.83587	 12.32260	 14.31182	 24.95444	  3.09638	 -1.08030	 29.78407	708.80603	 22.30	
 11.900	 90.000	 27.80465	 13.83668	 12.85856	 25.02559	  3.02712	 -1.06214	 29.79781	708.83600	 22.30	
 11.892	 81.845	 27.74776	 15.38801	 11.37767	 24.82029	  3.12539	 -1.00678	 29.77257	708.78003	 22.30	
 11.893	 73.654	 27.73696	 16.96795	  9.88346	 24.46143	  3.36540	 -0.93108	 29.81739	708.78198	 22.30	
 11.903	 65.403	 27.66556	 18.43958	  8.45907	 23.78125	  3.72630	 -0.89328	 29.77204	708.83002	 22.30	
 11.897	 57.268	 27.65927	 19.89563	  7.12418	 22.95973	  4.34911	 -0.88190	 29.80299	708.75299	 22.30	
 11.894	 49.133	 27.61374	 21.16178	  5.90101	 21.92099	  5.16554	 -0.87319	 29.78390	708.75000	 22.30	
 11.902	 40.852	 27.57058	 22.31027	  4.88925	 20.70424	  6.14495	 -0.86635	 29.76318	708.77698	 22.30	
 11.909	 32.701	 27.56679	 23.28652	  4.18448	 19.36692	  7.27334	 -0.90159	 29.77667	708.82202	 22.30	
 11.889	 24.555	 27.57034	 24.04994	  3.63785	 17.94063	  8.52946	 -0.94990	 29.79891	708.76898	 22.30	
 11.890	 16.390	 27.57401	 24.59802	  3.25596	 16.42731	  9.91398	 -0.98721	 29.79788	708.83301	 22.30	
 11.899	  8.217	 27.56320	 24.92103	  3.02723	 14.87440	 11.38921	 -0.98377	 29.78841	708.83301	 22.30	
 11.900	  0.000	 27.57334	 25.01832	  2.99107	 13.32183	 12.92984	 -0.97323	 29.77764	708.85199	 22.30	
 11.899	 -8.217	 27.56139	 24.89810	  3.04839	 11.79515	 14.53090	 -0.96699	 29.77454	708.64398	 22.30	
 11.890	-16.390	 27.56071	 24.52422	  3.32404	 10.29425	 16.12679	 -0.99192	 29.76425	708.84100	 22.30	
 11.889	-24.555	 27.63675	 23.98542	  3.78907	  8.97844	 17.63528	 -1.02341	 29.81025	708.78003	 22.30	
 11.909	-32.701	 27.61645	 23.17112	  4.38714	  7.67597	 19.08313	 -1.04377	 29.77812	708.86902	 22.30	
 11.902	-40.852	 27.64760	 22.18082	  5.12305	  6.55845	 20.43932	 -1.06050	 29.78459	708.90100	 22.30	
 11.894	-49.133	 27.69737	 21.01834	  6.12439	  5.58021	 21.66877	 -1.08538	 29.81166	708.83801	 22.30	
 11.897	-57.268	 27.75048	 19.67978	  7.43013	  4.79577	 22.70736	 -1.11610	 29.81996	708.86499	 22.30	
 11.903	-65.403	 27.76620	 18.27572	  8.74179	  4.22364	 23.51394	 -1.15300	 29.81275	708.89801	 22.30	
 11.893	-73.654	 27.79732	 16.77021	 10.14126	  3.84428	 24.11217	 -1.15606	 29.80949	708.85699	 22.30	
 11.892	-81.845	 27.84282	 15.20167	 11.66051	  3.65483	 24.46700	 -1.12671	 29.80229	708.84100	 22.30	
 11.900	-90.000	 27.88210	 13.65486	 13.14579	  3.63439	 24.59269	 -1.08144	 29.80104	708.81500	 22.30	
 11.892	-98.155	 27.94111	 12.14254	 14.65264	  3.75401	 24.49755	 -1.02567	 29.81902	708.82501	 22.30	
 11.893	-106.346	 27.94190	 10.67376	 16.16602	  4.04299	 24.14350	 -0.94035	 29.78346	708.85999	 22.30	
 11.903	-114.597	 27.96362	  9.32378	 17.72535	  4.52449	 23.53815	 -0.87964	 29.76883	708.82501	 22.30	
 11.897	-122.732	 27.99096	  8.06156	 19.15551	  5.20656	 22.72803	 -0.82554	 29.75220	708.74402	 22.30	
 11.894	-130.867	 28.02839	  6.93440	 20.43439	  6.09188	 21.73270	 -0.81509	 29.76219	708.80701	 22.30	
 11.902	-139.148	 28.04262	  5.87966	 21.64892	  7.11697	 20.55489	 -0.82498	 29.77919	708.81201	 22.30	
 11.909	-147.299	 28.00819	  5.09080	 22.59341	  8.28646	 19.18098	 -0.84621	 29.71946	708.82501	 22.30	
 11.889	-155.445	 28.07555	  4.52776	 23.38240	  9.61787	 17.76052	 -0.88476	 29.75879	708.94098	 22.30	
 11.890	-163.610	 28.06529	  4.12034	 23.92694	 11.02528	 16.22232	 -0.91913	 29.73636	708.81500	 22.40	
 11.899	-171.783	 28.11252	  3.90901	 24.30035	 12.52832	 14.67400	 -0.92481	 29.79017	708.86298	 22.30	
 11.900	180.000	 28.12988	  3.84919	 24.40034	 14.08887	 13.09579	 -0.92465	 29.80278	708.79797	 22.40	
 13.600	180.000	 27.48711	  2.12478	 25.45185	 13.55508	 12.54437	 -1.11140	 29.82380	708.82202	 22.30	
 13.608	-172.853	 27.44774	  2.13469	 25.37304	 12.01598	 14.06076	 -1.12600	 29.78737	708.83801	 22.30	
 13.611	-165.583	 27.41236	  2.30533	 25.06831	 10.48106	 15.65064	 -1.12510	 29.76167	708.85498	 22.30	
 13.601	-158.353	 27.42972	  2.65753	 24.57656	  9.06566	 17.21643	 -1.10752	 29.77467	708.82800	 22.30	
 13.609	-151.210	 27.38289	  3.13148	 23.87903	  7.70664	 18.68549	 -1.06442	 29.76046	708.82800	 22.30	
 13.611	-143.999	 27.38064	  3.81137	 22.97191	  6.46963	 20.11735	 -1.02300	 29.75702	708.85199	 22.30	
 13.601	-136.825	 27.36644	  4.58202	 21.96968	  5.36867	 21.40556	 -0.99347	 29.77543	708.77301	 22.30	
 13.596	-129.640	 27.33868	  5.58575	 20.73314	  4.38059	 22.54855	 -0.98498	 29.76315	708.74902	 22.30	
