FileType=PCF
NHL=14
Date=10/23/18	09:34:51
Facility=APL
Serial=16328-17
Customer=NASA
NP=6
Mach=0.050000
Calibration=1:1
CalPts=490
TstPts=95
PortNumbering=AP Standard
Units=Torr C m/s kg/m^3 deg mm 
Theta[deg]	Phi[deg]	P1[Torr]	P2[Torr]	P3[Torr]	P4[Torr]	P5[Torr]	P6[Torr]	Pt[Torr]	Ps[Abs,Torr]	Ts[C]	
  0.000	  0.000	  1.22736	  0.65964	  0.63940	  0.65377	  0.65244	  0.00476	  1.22008	710.99200	 12.80	
  1.691	128.401	  1.23057	  0.63391	  0.66464	  0.68480	  0.62365	  0.00520	  1.22224	710.98602	 12.80	
  1.692	 77.194	  1.22608	  0.67028	  0.62272	  0.69222	  0.60725	  0.00474	  1.21883	711.01099	 12.80	
  1.699	 26.182	  1.22553	  0.70912	  0.58393	  0.66293	  0.62753	  0.00397	  1.21924	711.01001	 12.80	
  1.699	-26.182	  1.22432	  0.70967	  0.57797	  0.61580	  0.67460	  0.00190	  1.21903	711.00000	 12.80	
  1.692	-77.194	  1.22393	  0.66922	  0.61315	  0.58870	  0.70737	  0.00180	  1.21800	710.97601	 12.80	
  1.691	-128.401	  1.22627	  0.62586	  0.66060	  0.60362	  0.69719	  0.00300	  1.21941	711.00299	 12.80	
  1.700	180.000	  1.22507	  0.61137	  0.68198	  0.64643	  0.65312	  0.00428	  1.21711	710.97900	 12.80	
  3.400	180.000	  1.22591	  0.54541	  0.74470	  0.63793	  0.65039	  0.00179	  1.21914	711.06500	 12.80	
  3.388	-152.325	  1.22526	  0.55511	  0.72868	  0.58404	  0.70671	  0.00022	  1.21968	711.06097	 12.80	
  3.397	-124.529	  1.22103	  0.58718	  0.68558	  0.54086	  0.74865	 -0.00082	  1.21715	711.01099	 12.80	
  3.399	-96.763	  1.22432	  0.64004	  0.63285	  0.52221	  0.77211	 -0.00216	  1.22100	711.01099	 12.80	
  3.394	-69.283	  1.21839	  0.69328	  0.57589	  0.52599	  0.75953	 -0.00301	  1.21519	710.99402	 12.80	
  3.400	-41.398	  1.21677	  0.74180	  0.53185	  0.55472	  0.72349	 -0.00219	  1.21383	711.01300	 12.80	
  3.401	-14.021	  1.22136	  0.77238	  0.51131	  0.60332	  0.67486	 -0.00058	  1.21758	711.08899	 12.80	
  3.401	 14.021	  1.22245	  0.77368	  0.51430	  0.65989	  0.61965	  0.00091	  1.21778	711.06097	 12.80	
  3.400	 41.398	  1.22178	  0.74593	  0.53775	  0.71110	  0.57272	  0.00161	  1.21667	711.05103	 12.90	
  3.394	 69.283	  1.22719	  0.70022	  0.58491	  0.74847	  0.54749	  0.00277	  1.22131	711.02600	 12.80	
  3.399	 96.763	  1.22825	  0.64463	  0.63897	  0.75738	  0.54391	  0.00149	  1.22103	711.05603	 12.90	
  3.397	124.529	  1.22775	  0.59565	  0.69107	  0.73599	  0.56343	  0.00238	  1.22058	711.11798	 12.90	
  3.388	152.325	  1.23086	  0.56388	  0.73193	  0.69567	  0.60080	  0.00246	  1.22422	711.00201	 12.90	
  5.099	161.165	  1.22399	  0.49077	  0.79458	  0.69093	  0.58817	 -0.00289	  1.22086	711.03198	 12.90	
  5.109	142.013	  1.22163	  0.51503	  0.76387	  0.74349	  0.53800	 -0.00213	  1.21896	711.05902	 12.90	
  5.095	123.033	  1.22451	  0.55651	  0.71911	  0.78764	  0.50262	 -0.00210	  1.22145	710.93799	 12.90	
  5.105	104.191	  1.22024	  0.60515	  0.66153	  0.80962	  0.47897	 -0.00203	  1.21850	710.97900	 12.90	
  5.093	 85.207	  1.21771	  0.66184	  0.60184	  0.81239	  0.47195	 -0.00188	  1.21568	711.01801	 12.90	
  5.104	 66.290	  1.21858	  0.72287	  0.54416	  0.79683	  0.48354	 -0.00191	  1.21775	711.04102	 12.90	
  5.094	 47.331	  1.21656	  0.77309	  0.49677	  0.75911	  0.51073	 -0.00319	  1.21676	710.99701	 12.90	
  5.089	 28.397	  1.21643	  0.81248	  0.46115	  0.70937	  0.55405	 -0.00448	  1.21878	710.97601	 12.90	
  5.096	  9.576	  1.21334	  0.83124	  0.44156	  0.65033	  0.60631	 -0.00517	  1.21691	710.95203	 12.90	
  5.096	 -9.576	  1.21009	  0.82790	  0.43890	  0.58863	  0.66504	 -0.00711	  1.21502	711.00800	 12.90	
  5.089	-28.397	  1.21152	  0.80825	  0.45602	  0.53545	  0.72395	 -0.00893	  1.21708	711.06097	 12.90	
  5.094	-47.331	  1.21232	  0.77114	  0.48674	  0.49119	  0.77514	 -0.00962	  1.21807	710.99200	 12.90	
  5.104	-66.290	  1.21210	  0.71767	  0.53471	  0.46204	  0.81136	 -0.01007	  1.21687	711.13202	 13.00	
  5.093	-85.207	  1.21311	  0.65831	  0.59275	  0.45195	  0.82906	 -0.00956	  1.21775	711.03497	 13.00	
  5.105	-104.191	  1.21362	  0.59909	  0.65369	  0.45679	  0.82504	 -0.00805	  1.21675	711.07202	 13.00	
  5.095	-123.033	  1.21600	  0.54789	  0.71180	  0.48173	  0.80011	 -0.00621	  1.21746	711.05603	 13.00	
  5.109	-142.013	  1.22183	  0.50932	  0.76183	  0.52150	  0.76154	 -0.00504	  1.22146	711.06500	 13.00	
  5.099	-161.165	  1.21748	  0.48205	  0.79141	  0.57080	  0.70214	 -0.00385	  1.21638	711.07501	 13.00	
  5.100	180.000	  1.21922	  0.47809	  0.80101	  0.62888	  0.64379	 -0.00286	  1.21624	711.02899	 13.00	
  6.800	180.000	  1.21160	  0.40915	  0.85887	  0.62117	  0.63408	 -0.00926	  1.21637	710.97803	 13.00	
  6.796	-166.229	  1.20790	  0.41082	  0.84937	  0.56050	  0.69191	 -0.00926	  1.21543	710.89502	 13.00	
  6.808	-152.311	  1.20663	  0.42699	  0.82667	  0.50690	  0.74827	 -0.00958	  1.21441	710.93701	 13.00	
  6.795	-138.383	  1.20791	  0.45675	  0.79136	  0.46064	  0.80104	 -0.01137	  1.21873	710.96997	 13.00	
  6.792	-124.591	  1.20650	  0.49711	  0.74257	  0.42326	  0.84196	 -0.01295	  1.21892	711.05701	 13.00	
  6.787	-110.754	  1.20049	  0.54412	  0.68351	  0.39405	  0.86713	 -0.01445	  1.21455	710.98901	 13.00	
  6.800	-96.985	  1.20231	  0.60141	  0.62457	  0.38052	  0.88376	 -0.01643	  1.21795	711.00800	 13.00	
  6.800	-83.015	  1.20111	  0.66032	  0.56516	  0.37855	  0.88222	 -0.01857	  1.21805	711.01300	 13.00	
  6.787	-69.246	  1.20105	  0.71980	  0.50916	  0.39085	  0.86601	 -0.01772	  1.21725	710.96802	 13.00	
  6.792	-55.409	  1.20121	  0.77493	  0.46054	  0.41609	  0.83592	 -0.01695	  1.21702	710.97302	 13.00	
  6.795	-41.617	  1.20137	  0.82267	  0.42056	  0.45148	  0.79395	 -0.01666	  1.21819	711.00800	 13.00	
  6.808	-27.689	  1.20010	  0.85728	  0.39034	  0.49692	  0.74171	 -0.01608	  1.21573	710.95203	 13.00	
  6.796	-13.771	  1.20129	  0.88225	  0.37208	  0.55018	  0.68574	 -0.01420	  1.21720	710.92902	 13.00	
  6.800	  0.000	  1.20140	  0.88988	  0.36769	  0.60914	  0.62588	 -0.01208	  1.21615	710.97601	 13.10	
  6.796	 13.771	  1.20017	  0.88184	  0.37515	  0.66694	  0.56802	 -0.01118	  1.21409	711.03198	 13.10	
  6.808	 27.689	  1.20452	  0.86279	  0.39521	  0.72568	  0.51724	 -0.01049	  1.21676	711.04303	 13.10	
  6.795	 41.617	  1.20428	  0.82612	  0.42607	  0.77752	  0.47069	 -0.00843	  1.21577	710.98602	 13.10	
  6.792	 55.409	  1.20892	  0.78184	  0.46907	  0.82240	  0.43829	 -0.00825	  1.21864	711.07300	 13.10	
  6.787	 69.246	  1.20859	  0.72591	  0.51949	  0.85205	  0.41377	 -0.00738	  1.21719	711.06097	 13.10	
  6.800	 83.015	  1.20697	  0.66649	  0.57381	  0.86624	  0.40174	 -0.00742	  1.21486	711.07599	 13.10	
  6.800	 96.985	  1.21048	  0.60994	  0.63417	  0.86904	  0.40500	 -0.00775	  1.21668	711.02698	 13.10	
  6.787	110.754	  1.20989	  0.55427	  0.69063	  0.85452	  0.41726	 -0.00873	  1.21591	711.06097	 13.10	
  6.792	124.591	  1.21195	  0.50398	  0.74741	  0.82683	  0.44179	 -0.00877	  1.21764	711.01801	 13.10	
  6.795	138.383	  1.21069	  0.46438	  0.79129	  0.78546	  0.47665	 -0.01027	  1.21639	711.00500	 13.10	
  6.808	152.311	  1.20931	  0.43378	  0.82617	  0.73484	  0.52191	 -0.00904	  1.21442	710.97302	 13.10	
  6.796	166.229	  1.20987	  0.41408	  0.85023	  0.67843	  0.57488	 -0.00879	  1.21576	710.99200	 13.10	
  8.491	168.704	  1.19628	  0.34100	  0.90460	  0.66616	  0.56011	 -0.01586	  1.21487	711.00800	 13.10	
  8.502	157.493	  1.20121	  0.35696	  0.89049	  0.72904	  0.50559	 -0.01598	  1.21996	711.01001	 13.10	
  8.494	146.194	  1.20001	  0.38395	  0.85750	  0.78348	  0.45509	 -0.01671	  1.21746	711.04102	 13.10	
  8.495	135.039	  1.19605	  0.41562	  0.81642	  0.82930	  0.41186	 -0.01627	  1.21390	710.96997	 13.10	
  8.487	123.723	  1.19744	  0.45910	  0.76692	  0.86948	  0.37740	 -0.01611	  1.21552	711.00201	 13.10	
  8.492	112.575	  1.19809	  0.50820	  0.71364	  0.90097	  0.35123	 -0.01620	  1.21723	710.96997	 13.10	
  8.510	101.220	  1.19345	  0.56343	  0.64978	  0.91607	  0.33419	 -0.01671	  1.21332	710.97900	 13.10	
  8.500	 90.000	  1.19664	  0.62336	  0.59220	  0.92464	  0.32852	 -0.01561	  1.21779	710.90802	 13.20	
  8.510	 78.780	  1.19126	  0.68218	  0.52902	  0.91511	  0.33044	 -0.01484	  1.21362	710.96997	 13.10	
  8.492	 67.425	  1.19238	  0.74429	  0.47196	  0.89385	  0.34666	 -0.01628	  1.21587	711.03497	 13.20	
  8.487	 56.277	  1.19297	  0.80006	  0.42330	  0.86402	  0.37158	 -0.01611	  1.21853	711.01099	 13.20	
  8.495	 44.961	  1.19042	  0.84708	  0.38046	  0.82070	  0.40459	 -0.01496	  1.21651	710.94000	 13.20	
  8.494	 33.806	  1.18544	  0.88536	  0.34238	  0.76855	  0.44411	 -0.01614	  1.21451	711.03400	 13.20	
  8.502	 22.507	  1.18701	  0.91807	  0.31785	  0.71287	  0.49585	 -0.01917	  1.21733	711.00000	 13.20	
  8.491	 11.296	  1.18516	  0.93547	  0.29946	  0.65272	  0.55044	 -0.01959	  1.21607	710.97900	 13.20	
  8.500	  0.000	  1.18204	  0.94090	  0.29086	  0.59040	  0.60849	 -0.02098	  1.21519	710.97803	 13.20	
  8.491	-11.296	  1.18469	  0.93481	  0.29670	  0.53207	  0.67028	 -0.02255	  1.21892	711.04303	 13.20	
  8.502	-22.507	  1.18809	  0.91874	  0.31232	  0.47740	  0.73326	 -0.02502	  1.22281	711.01099	 13.20	
  8.494	-33.806	  1.18107	  0.88173	  0.33456	  0.42504	  0.78479	 -0.02698	  1.21570	710.97601	 13.20	
  8.495	-44.961	  1.17862	  0.83895	  0.36875	  0.38221	  0.83257	 -0.02674	  1.21328	710.96802	 13.20	
  8.487	-56.277	  1.17994	  0.78957	  0.41110	  0.34814	  0.87629	 -0.02630	  1.21422	710.91400	 13.20	
  8.492	-67.425	  1.18448	  0.73677	  0.46339	  0.32507	  0.91092	 -0.02828	  1.21853	710.94000	 13.20	
  8.510	-78.780	  1.18192	  0.67511	  0.51838	  0.30965	  0.92999	 -0.02825	  1.21538	710.98102	 13.20	
  8.500	-90.000	  1.18215	  0.61410	  0.57709	  0.30509	  0.93681	 -0.02718	  1.21421	710.91101	 13.20	
  8.510	-101.220	  1.18562	  0.55606	  0.63979	  0.31183	  0.93432	 -0.02424	  1.21657	710.98401	 13.20	
  8.492	-112.575	  1.18809	  0.50091	  0.70269	  0.33133	  0.91510	 -0.02192	  1.21566	710.96802	 13.20	
  8.487	-123.723	  1.19009	  0.45324	  0.75771	  0.35842	  0.88569	 -0.02046	  1.21613	710.92700	 13.20	
  8.495	-135.039	  1.19264	  0.40993	  0.81100	  0.39364	  0.84595	 -0.01940	  1.21765	710.95697	 13.20	
  8.494	-146.194	  1.19605	  0.37868	  0.85340	  0.43979	  0.79860	 -0.01685	  1.21892	710.94598	 13.20	
  8.502	-157.493	  1.19076	  0.35138	  0.88130	  0.48816	  0.73750	 -0.01663	  1.21225	710.98901	 13.20	
  8.491	-168.704	  1.19477	  0.33821	  0.90393	  0.54541	  0.68098	 -0.01730	  1.21546	710.94800	 13.20	
  8.500	180.000	  1.19907	  0.33358	  0.91502	  0.60755	  0.62043	 -0.01717	  1.21919	710.97900	 13.20	
 10.200	180.000	  1.17826	  0.26030	  0.96157	  0.59030	  0.60240	 -0.02548	  1.21663	710.94897	 13.30	
 10.191	-170.497	  1.17769	  0.26413	  0.95552	  0.52962	  0.66557	 -0.02614	  1.21640	711.03198	 13.30	
 10.210	-161.034	  1.17700	  0.27605	  0.93916	  0.47128	  0.72680	 -0.02613	  1.21719	711.00500	 13.20	
 10.194	-151.526	  1.17627	  0.29646	  0.91148	  0.41727	  0.78548	 -0.02537	  1.21755	711.03699	 13.20	
 10.190	-142.105	  1.17474	  0.32491	  0.87412	  0.36924	  0.83947	 -0.02556	  1.21770	710.99500	 13.30	
 10.215	-132.646	  1.17123	  0.35990	  0.82608	  0.32489	  0.88610	 -0.02733	  1.21684	710.95203	 13.30	
 10.203	-123.092	  1.17189	  0.40433	  0.77532	  0.29063	  0.92653	 -0.03002	  1.21878	710.95697	 13.30	
 10.192	-113.678	  1.16731	  0.45290	  0.71644	  0.26522	  0.95300	 -0.03165	  1.21579	710.97601	 13.30	
 10.208	-104.249	  1.16438	  0.50703	  0.65369	  0.24555	  0.97313	 -0.03279	  1.21525	710.96802	 13.30	
 10.210	-94.801	  1.16368	  0.56490	  0.59261	  0.23440	  0.98275	 -0.03504	  1.21519	710.86298	 13.30	
 10.210	-85.199	  1.16272	  0.62741	  0.53025	  0.23367	  0.98240	 -0.03613	  1.21659	710.89203	 13.30	
 10.208	-75.751	  1.16267	  0.68868	  0.47195	  0.24183	  0.97064	 -0.03672	  1.21674	710.98602	 13.30	
 10.192	-66.322	  1.16104	  0.74950	  0.41492	  0.25689	  0.94773	 -0.03736	  1.21622	710.99500	 13.30	
 10.203	-56.908	  1.15803	  0.80261	  0.36548	  0.28191	  0.91442	 -0.03525	  1.21272	711.03998	 13.30	
 10.215	-47.354	  1.16148	  0.85858	  0.32171	  0.31532	  0.87718	 -0.03553	  1.21736	710.94897	 13.30	
 10.190	-37.895	  1.16267	  0.90314	  0.28714	  0.35656	  0.82934	 -0.03586	  1.21814	710.95398	 13.30	
 10.194	-28.474	  1.16571	  0.94236	  0.25811	  0.40410	  0.77647	 -0.03486	  1.22124	710.90002	 13.30	
 10.210	-18.966	  1.15838	  0.96209	  0.23811	  0.45510	  0.71408	 -0.03323	  1.21301	710.96399	 13.30	
 10.191	 -9.503	  1.16151	  0.98155	  0.22605	  0.51316	  0.65519	 -0.03021	  1.21595	710.93500	 13.30	
 10.200	  0.000	  1.16190	  0.98740	  0.22181	  0.57328	  0.59244	 -0.02921	  1.21525	710.85999	 13.30	
 10.191	  9.503	  1.16304	  0.98220	  0.22711	  0.63395	  0.53297	 -0.02885	  1.21496	710.82703	 13.30	
 10.210	 18.966	  1.16509	  0.96943	  0.24082	  0.69695	  0.47574	 -0.02800	  1.21609	710.82703	 13.30	
 10.194	 28.474	  1.16471	  0.94308	  0.26249	  0.75503	  0.42322	 -0.02500	  1.21412	710.90302	 13.30	
 10.190	 37.895	  1.16620	  0.90677	  0.29364	  0.80921	  0.37740	 -0.02359	  1.21326	710.95398	 13.30	
 10.215	 47.354	  1.17102	  0.86705	  0.33052	  0.86132	  0.33770	 -0.02369	  1.21779	710.80798	 13.30	
 10.203	 56.908	  1.17482	  0.81653	  0.37608	  0.90487	  0.30407	 -0.02401	  1.21981	710.92902	 13.30	
 10.192	 66.322	  1.17327	  0.75819	  0.42667	  0.93555	  0.27976	 -0.02438	  1.21607	710.84698	 13.30	
 10.208	 75.751	  1.17447	  0.69972	  0.48164	  0.95812	  0.26370	 -0.02385	  1.21649	710.89001	 13.30	
 10.210	 85.199	  1.17547	  0.63836	  0.53986	  0.97065	  0.25489	 -0.02506	  1.21596	710.95203	 13.30	
 10.210	 94.801	  1.17635	  0.57629	  0.60362	  0.97144	  0.25693	 -0.02535	  1.21545	710.88202	 13.30	
 10.208	104.249	  1.17765	  0.51862	  0.66462	  0.96111	  0.26711	 -0.02590	  1.21505	710.91400	 13.30	
 10.192	113.678	  1.17879	  0.46367	  0.72555	  0.94142	  0.28534	 -0.02569	  1.21558	710.89801	 13.30	
 10.203	123.092	  1.17948	  0.41282	  0.78168	  0.91106	  0.31065	 -0.02563	  1.21478	710.85199	 13.30	
 10.215	132.646	  1.18115	  0.36920	  0.83475	  0.87308	  0.34484	 -0.02562	  1.21706	711.01599	 13.40	
 10.190	142.105	  1.18300	  0.33330	  0.88001	  0.82714	  0.38638	 -0.02571	  1.21919	710.91901	 13.40	
 10.194	151.526	  1.17829	  0.30194	  0.91289	  0.76973	  0.43209	 -0.02567	  1.21492	711.03497	 13.40	
 10.210	161.034	  1.17648	  0.27832	  0.93828	  0.71043	  0.48437	 -0.02429	  1.21244	710.95599	 13.40	
 10.191	170.497	  1.17605	  0.26694	  0.95353	  0.65007	  0.54262	 -0.02448	  1.21244	710.93701	 13.40	
 11.899	171.783	  1.15704	  0.19496	  1.00238	  0.63283	  0.52473	 -0.03368	  1.21634	710.99200	 13.40	
 11.890	163.610	  1.15678	  0.20601	  0.98895	  0.69480	  0.46590	 -0.03328	  1.21481	710.91602	 13.40	
 11.889	155.445	  1.15550	  0.22375	  0.96484	  0.75357	  0.41108	 -0.03364	  1.21315	710.98700	 13.40	
 11.909	147.299	  1.15937	  0.24943	  0.93735	  0.81231	  0.36156	 -0.03460	  1.21754	710.88098	 13.40	
 11.902	139.148	  1.15763	  0.28196	  0.89514	  0.86283	  0.31619	 -0.03478	  1.21587	710.87598	 13.40	
 11.894	130.867	  1.16012	  0.32137	  0.84865	  0.91163	  0.27744	 -0.03468	  1.21825	710.87500	 13.40	
 11.897	122.732	  1.15657	  0.36499	  0.79415	  0.94726	  0.24444	 -0.03539	  1.21569	710.93701	 13.40	
 11.903	114.597	  1.15515	  0.41330	  0.73818	  0.97775	  0.21844	 -0.03571	  1.21495	710.88702	 13.40	
 11.893	106.346	  1.15387	  0.46897	  0.67600	  0.99797	  0.20063	 -0.03568	  1.21352	710.83301	 13.40	
 11.892	 98.155	  1.14879	  0.52581	  0.61251	  1.00809	  0.18930	 -0.03414	  1.20923	711.00299	 13.40	
 11.900	 90.000	  1.15506	  0.58799	  0.55521	  1.01808	  0.18521	 -0.03416	  1.21645	710.92700	 13.40	
 11.892	 81.845	  1.14732	  0.64540	  0.49102	  1.00660	  0.18540	 -0.03310	  1.20981	710.92902	 13.40	
 11.893	 73.654	  1.14661	  0.70843	  0.43206	  0.99183	  0.19578	 -0.03368	  1.21195	710.87598	 13.40	
 11.903	 65.403	  1.14881	  0.76976	  0.37884	  0.97043	  0.21372	 -0.03415	  1.21589	710.84003	 13.40	
 11.897	 57.268	  1.14657	  0.82477	  0.32886	  0.93777	  0.23774	 -0.03256	  1.21520	710.84698	 13.40	
 11.894	 49.133	  1.14207	  0.87554	  0.28265	  0.89452	  0.26818	 -0.03210	  1.21284	710.91302	 13.40	
 11.902	 40.852	  1.14321	  0.92255	  0.24439	  0.84794	  0.30637	 -0.03240	  1.21543	710.87598	 13.40	
 11.909	 32.701	  1.14153	  0.96089	  0.21099	  0.79410	  0.34962	 -0.03398	  1.21565	710.85901	 13.40	
 11.889	 24.555	  1.13911	  0.99136	  0.18416	  0.73593	  0.39826	 -0.03533	  1.21401	710.81702	 13.40	
 11.890	 16.390	  1.14230	  1.01689	  0.16661	  0.67777	  0.45502	 -0.03742	  1.21918	710.89203	 13.40	
 11.899	  8.217	  1.13626	  1.02596	  0.15399	  0.61349	  0.50995	 -0.03917	  1.21499	710.86499	 13.40	
 11.900	  0.000	  1.13816	  1.03287	  0.14982	  0.55338	  0.57163	 -0.03911	  1.21769	710.84698	 13.40	
 11.899	 -8.217	  1.13409	  1.02578	  0.15070	  0.49114	  0.63137	 -0.03980	  1.21546	710.86298	 13.40	
 11.890	-16.390	  1.13678	  1.01307	  0.16315	  0.43457	  0.69487	 -0.04221	  1.21848	710.92200	 13.40	
 11.889	-24.555	  1.13274	  0.98772	  0.17740	  0.38008	  0.75155	 -0.04357	  1.21483	710.91602	 13.40	
 11.909	-32.701	  1.13533	  0.95722	  0.20223	  0.32989	  0.81100	 -0.04632	  1.21810	710.85999	 13.40	
 11.902	-40.852	  1.13161	  0.91541	  0.23153	  0.28502	  0.85988	 -0.04646	  1.21441	710.84100	 13.40	
 11.894	-49.133	  1.13172	  0.86655	  0.27071	  0.24666	  0.90841	 -0.04506	  1.21422	710.88702	 13.40	
 11.897	-57.268	  1.13240	  0.81515	  0.31492	  0.21530	  0.94955	 -0.04538	  1.21445	710.83600	 13.50	
 11.903	-65.403	  1.13536	  0.75832	  0.36602	  0.19082	  0.98437	 -0.04599	  1.21714	710.82703	 13.50	
 11.893	-73.654	  1.13240	  0.69614	  0.41989	  0.17438	  1.00530	 -0.04668	  1.21264	710.86499	 13.50	
 11.892	-81.845	  1.13296	  0.63550	  0.47796	  0.16528	  1.02009	 -0.04608	  1.21200	710.90802	 13.50	
 11.900	-90.000	  1.13666	  0.57529	  0.53958	  0.16244	  1.02804	 -0.04441	  1.21428	710.81702	 13.50	
 11.892	-98.155	  1.13830	  0.51637	  0.60231	  0.16794	  1.02503	 -0.04309	  1.21413	710.88397	 13.50	
 11.893	-106.346	  1.14148	  0.45855	  0.66584	  0.17889	  1.01386	 -0.04082	  1.21545	710.84399	 13.50	
 11.903	-114.597	  1.14370	  0.40421	  0.72744	  0.20024	  0.99076	 -0.04012	  1.21617	710.84900	 13.50	
 11.897	-122.732	  1.14212	  0.35536	  0.78210	  0.22609	  0.95785	 -0.03853	  1.21234	710.81097	 13.50	
 11.894	-130.867	  1.14740	  0.31156	  0.83949	  0.25928	  0.92139	 -0.03632	  1.21602	710.85901	 13.50	
 11.902	-139.148	  1.14791	  0.27408	  0.88586	  0.29832	  0.87511	 -0.03528	  1.21550	710.81299	 13.50	
 11.909	-147.299	  1.14814	  0.24227	  0.92592	  0.34345	  0.82265	 -0.03396	  1.21438	710.91302	 13.50	
 11.889	-155.445	  1.15194	  0.22001	  0.96019	  0.39546	  0.76834	 -0.03347	  1.21582	710.85498	 13.50	
 11.890	-163.610	  1.15037	  0.20240	  0.98229	  0.45059	  0.70548	 -0.03469	  1.21243	710.87903	 13.50	
 11.899	-171.783	  1.15065	  0.19039	  0.99745	  0.50858	  0.64362	 -0.03531	  1.21220	710.90503	 13.50	
 11.900	180.000	  1.15189	  0.18821	  1.00346	  0.56935	  0.58176	 -0.03514	  1.21263	710.82397	 13.50	
 13.600	180.000	  1.13005	  0.11709	  1.04888	  0.55041	  0.56243	 -0.04375	  1.21727	710.78497	 13.50	
 13.608	-172.853	  1.12604	  0.11961	  1.04229	  0.48823	  0.62313	 -0.04503	  1.21527	710.76801	 13.50	
 13.611	-165.583	  1.12314	  0.12537	  1.02836	  0.42711	  0.68433	 -0.04321	  1.21410	710.89203	 13.50	
 13.601	-158.353	  1.12333	  0.14193	  1.00695	  0.37299	  0.74511	 -0.04256	  1.21521	710.91400	 13.50	
 13.609	-151.210	  1.12003	  0.16347	  0.97666	  0.32083	  0.80288	 -0.04122	  1.21354	710.84003	 13.50	
 13.611	-143.999	  1.11937	  0.19003	  0.93943	  0.27068	  0.85935	 -0.04195	  1.21478	710.87598	 13.50	
 13.601	-136.825	  1.11774	  0.22204	  0.89702	  0.22954	  0.90771	 -0.04280	  1.21396	710.87299	 13.50	
 13.596	-129.640	  1.11697	  0.26182	  0.84761	  0.19232	  0.95343	 -0.04475	  1.21604	710.84100	 13.50	
