FileType=PCF
NHL=14
Date=03/15/19	15:03:49
Facility=APL
Serial=16071-3
Customer=NASA
NP=6
Mach=0.300000
Calibration=1:1
CalPts=490
TstPts=95
PortNumbering=AP Standard
Units=Torr C m/s kg/m^3 deg mm 
Theta[deg]	Phi[deg]	P1[Torr]	P2[Torr]	P3[Torr]	P4[Torr]	P5[Torr]	P6[Torr]	Pt[Torr]	Ps[Abs,Torr]	Ts[C]	
  0.000	  0.000	 42.53831	 17.63953	 18.66424	 18.53368	 18.02077	  1.04559	 42.61048	702.52002	 27.90	
  1.691	128.401	 42.52733	 16.06753	 20.05478	 20.36391	 16.25993	  1.01637	 42.62574	702.70001	 28.00	
  1.692	 77.194	 42.52181	 18.05992	 18.04907	 20.83874	 15.80338	  1.07237	 42.60144	702.71002	 28.00	
  1.699	 26.182	 42.54371	 19.73850	 16.49008	 19.55712	 17.02014	  1.08968	 42.61451	702.56000	 28.00	
  1.699	-26.182	 42.53204	 19.81196	 16.51874	 17.65056	 19.00380	  1.05254	 42.60262	702.60999	 28.00	
  1.692	-77.194	 42.52870	 18.15523	 18.11624	 16.40874	 20.17699	  0.99165	 42.60645	702.58002	 28.00	
  1.691	-128.401	 42.51990	 16.08725	 20.11812	 16.81746	 19.72335	  0.95163	 42.61837	702.66998	 28.10	
  1.700	180.000	 42.51159	 15.15933	 21.01140	 18.45790	 18.00474	  0.95633	 42.61458	702.58002	 28.10	
  3.400	180.000	 42.40036	 12.66729	 23.29013	 18.29018	 17.84151	  0.81006	 42.61121	702.53003	 28.10	
  3.388	-152.325	 42.42788	 13.19785	 22.76683	 16.31973	 19.88910	  0.80016	 42.63938	702.53998	 28.20	
  3.397	-124.529	 42.44048	 14.70702	 21.23167	 14.60585	 21.37798	  0.79673	 42.61911	702.51001	 28.20	
  3.399	-96.763	 42.45659	 16.89844	 19.06273	 13.83066	 22.27679	  0.83792	 42.62210	702.62000	 28.20	
  3.394	-69.283	 42.48836	 19.19750	 16.83969	 14.14132	 22.02857	  0.88561	 42.61628	702.65002	 28.20	
  3.400	-41.398	 42.53074	 21.19161	 14.99582	 15.45580	 20.89969	  0.94757	 42.64487	702.65002	 28.20	
  3.401	-14.021	 42.54144	 22.26942	 13.97124	 17.39663	 19.01899	  1.00974	 42.62505	702.59998	 28.30	
  3.401	 14.021	 42.52864	 22.17249	 13.93759	 19.47849	 16.83786	  1.04910	 42.63219	702.64001	 28.30	
  3.400	 41.398	 42.51039	 21.01416	 14.90196	 21.57214	 14.91099	  1.04953	 42.63976	702.63000	 28.30	
  3.394	 69.283	 42.49683	 19.04335	 16.72085	 22.87801	 13.51408	  1.04157	 42.64597	702.64001	 28.30	
  3.399	 96.763	 42.47985	 16.74006	 18.95187	 23.13121	 13.19969	  0.98970	 42.65317	702.67999	 28.40	
  3.397	124.529	 42.44027	 14.58915	 21.11594	 22.27525	 13.93996	  0.90737	 42.64728	702.54999	 28.40	
  3.388	152.325	 42.43871	 13.16845	 22.71631	 20.51030	 15.52890	  0.85236	 42.64906	702.59003	 28.40	
  5.099	161.165	 42.15357	 10.59746	 25.03704	 20.26874	 15.16502	  0.62166	 42.63353	702.59003	 28.40	
  5.109	142.013	 42.15158	 11.57448	 23.82130	 22.43652	 13.18865	  0.64327	 42.62304	702.59998	 28.40	
  5.095	123.033	 42.18080	 13.13673	 22.00209	 24.08505	 11.72769	  0.74358	 42.63901	702.58002	 28.50	
  5.105	104.191	 42.23270	 15.21358	 19.79045	 25.08199	 10.88914	  0.80598	 42.65030	702.46997	 28.50	
  5.093	 85.207	 42.24664	 17.58421	 17.43435	 25.26488	 10.71511	  0.85868	 42.63745	702.70001	 28.50	
  5.104	 66.290	 42.30930	 19.92884	 15.24996	 24.76962	 11.23205	  0.91143	 42.65217	702.69000	 28.50	
  5.094	 47.331	 42.34371	 22.01927	 13.40342	 23.44328	 12.44636	  0.93666	 42.65775	702.59003	 28.50	
  5.089	 28.397	 42.36845	 23.59191	 12.11281	 21.50961	 14.47501	  0.94523	 42.65793	702.65002	 28.60	
  5.096	  9.576	 42.39025	 24.46501	 11.44927	 19.20831	 16.56833	  0.93120	 42.66821	702.56000	 28.60	
  5.096	 -9.576	 42.39091	 24.55005	 11.48596	 17.11345	 18.77293	  0.88832	 42.66461	702.57001	 28.60	
  5.089	-28.397	 42.40043	 23.79498	 12.21537	 14.98330	 20.85416	  0.81875	 42.65676	702.52002	 28.60	
  5.094	-47.331	 42.38910	 22.24794	 13.55567	 13.22080	 22.63842	  0.74931	 42.66091	702.59003	 28.60	
  5.104	-66.290	 42.35714	 20.16697	 15.43074	 11.99430	 23.91166	  0.67663	 42.65622	702.56000	 28.70	
  5.093	-85.207	 42.32019	 17.81404	 17.64053	 11.44588	 24.43819	  0.61680	 42.65373	702.59998	 28.70	
  5.105	-104.191	 42.28403	 15.39809	 19.97629	 11.59888	 24.24350	  0.58361	 42.65192	702.59003	 28.70	
  5.095	-123.033	 42.25291	 13.32485	 22.17458	 12.40832	 23.23277	  0.55356	 42.65253	702.70001	 28.70	
  5.109	-142.013	 42.20504	 11.69242	 23.96332	 13.82993	 21.58042	  0.55876	 42.63915	702.70001	 28.80	
  5.099	-161.165	 42.19827	 10.62751	 25.09860	 15.92626	 19.71725	  0.56813	 42.65728	702.63000	 28.80	
  5.100	180.000	 42.21155	 10.27237	 25.48350	 18.12741	 17.51728	  0.57936	 42.67495	702.65002	 28.80	
  6.800	180.000	 41.78392	  7.84659	 27.49666	 17.76171	 16.88177	  0.30067	 42.65009	702.57001	 28.80	
  6.796	-166.229	 41.80494	  8.15182	 27.24221	 15.53424	 19.22367	  0.29411	 42.66830	702.53003	 28.80	
  6.808	-152.311	 41.82991	  8.92580	 26.42126	 13.43448	 21.21486	  0.22112	 42.67221	702.60999	 28.80	
  6.795	-138.383	 41.85814	 10.12859	 25.08884	 11.74433	 23.14165	  0.26331	 42.66698	702.65997	 28.80	
  6.792	-124.591	 41.88878	 11.68291	 23.33652	 10.45887	 24.68849	  0.24832	 42.66685	702.65002	 28.80	
  6.787	-110.754	 41.94222	 13.55522	 21.23552	  9.52291	 25.88799	  0.28085	 42.68481	702.47998	 28.90	
  6.800	-96.985	 41.97482	 15.65579	 19.02072	  9.01407	 26.50617	  0.28325	 42.69356	702.54999	 28.90	
  6.800	-83.015	 42.01512	 17.99967	 16.73370	  9.03759	 26.52509	  0.31973	 42.68261	702.50000	 28.90	
  6.787	-69.246	 42.02416	 20.25717	 14.61175	  9.55995	 25.98768	  0.38560	 42.65009	702.48999	 28.90	
  6.792	-55.409	 42.06296	 22.39484	 12.72741	 10.56773	 24.89580	  0.43918	 42.67855	702.53998	 28.90	
  6.795	-41.617	 42.10225	 24.19667	 11.18169	 11.92519	 23.35624	  0.49016	 42.69210	702.48999	 29.00	
  6.808	-27.689	 42.11081	 25.64258	 10.00373	 13.63058	 21.38888	  0.58111	 42.69821	702.53998	 29.00	
  6.796	-13.771	 42.09628	 26.42674	  9.27126	 15.66720	 19.43795	  0.65428	 42.66391	702.52002	 29.00	
  6.800	  0.000	 42.09130	 26.69075	  8.97983	 17.89483	 17.30758	  0.70888	 42.67570	702.40002	 29.00	
  6.796	 13.771	 42.06604	 26.36218	  9.17689	 19.88005	 15.14090	  0.75168	 42.66531	702.48999	 29.00	
  6.808	 27.689	 42.03573	 25.44270	  9.82005	 22.17032	 12.86565	  0.75889	 42.66658	702.53003	 29.00	
  6.795	 41.617	 42.02306	 24.00854	 10.95482	 24.16829	 11.11736	  0.61278	 42.67842	702.45001	 29.00	
  6.792	 55.409	 41.99216	 22.16573	 12.46872	 25.70448	  9.72442	  0.71441	 42.67763	702.57001	 29.10	
  6.787	 69.246	 41.96283	 20.00294	 14.35774	 26.74123	  8.78461	  0.69001	 42.67482	702.41998	 29.10	
  6.800	 83.015	 41.90564	 17.70670	 16.46053	 27.26420	  8.24281	  0.64299	 42.65223	702.54999	 29.10	
  6.800	 96.985	 41.88313	 15.37009	 18.75179	 27.25549	  8.21430	  0.59897	 42.67559	702.54999	 29.10	
  6.787	110.754	 41.87400	 13.26338	 21.02661	 26.65387	  8.73947	  0.54921	 42.68661	702.53003	 29.10	
  6.792	124.591	 41.82796	 11.41252	 23.13457	 25.56973	  9.64787	  0.48299	 42.68845	702.62000	 29.10	
  6.795	138.383	 41.80451	  9.92475	 24.92191	 24.04521	 11.02415	  0.26681	 42.67989	702.63000	 29.20	
  6.808	152.311	 41.77940	  8.76635	 26.33116	 22.05721	 12.79359	  0.37520	 42.66959	702.62000	 29.20	
  6.796	166.229	 41.79762	  8.10631	 27.18773	 19.81005	 14.79578	  0.33260	 42.66442	702.57001	 29.20	
  8.491	168.704	 41.22337	  5.60243	 29.14288	 19.29903	 14.22318	 -0.01509	 42.66861	702.53003	 29.20	
  8.502	157.493	 41.18757	  6.07805	 28.41928	 21.64433	 12.09796	  0.02829	 42.66262	702.58002	 29.20	
  8.494	146.194	 41.19163	  7.01711	 27.20137	 23.77687	 10.19352	  0.07266	 42.64082	702.54999	 29.20	
  8.495	135.039	 41.25104	  8.28586	 25.68609	 25.60072	  8.58543	  0.14709	 42.68378	702.54999	 29.20	
  8.487	123.723	 41.27181	  9.89080	 23.77073	 27.11251	  7.24543	  0.13220	 42.67133	702.57001	 29.20	
  8.492	112.575	 41.30006	 11.67654	 21.68641	 28.25351	  6.28804	  0.23832	 42.68210	702.57001	 29.30	
  8.510	101.220	 41.31985	 13.72330	 19.37793	 29.01187	  5.75624	  0.19438	 42.65723	702.56000	 29.30	
  8.500	 90.000	 41.37609	 15.99137	 17.08692	 29.30192	  5.64391	  0.32354	 42.66704	702.59998	 29.30	
  8.510	 78.780	 41.41219	 18.35029	 14.83521	 29.08827	  5.81564	  0.10688	 42.67841	702.59998	 29.30	
  8.492	 67.425	 41.47940	 20.69911	 12.75754	 28.39844	  6.38784	  0.18476	 42.70195	702.53998	 29.30	
  8.487	 56.277	 41.48110	 22.83126	 10.92462	 27.26092	  7.36379	  0.39624	 42.66792	702.50000	 29.30	
  8.495	 44.961	 41.50883	 24.77883	  9.36485	 25.73254	  8.75147	  0.30339	 42.66085	702.53003	 29.30	
  8.494	 33.806	 41.54190	 26.40308	  8.09572	 23.92165	 10.34367	  0.51009	 42.66618	702.48999	 29.40	
  8.502	 22.507	 41.58152	 27.63541	  7.18916	 21.71042	 12.22692	  0.30513	 42.68934	702.46997	 29.40	
  8.491	 11.296	 41.59715	 28.37418	  6.67857	 19.48507	 14.37217	  0.45372	 42.68254	702.47998	 29.40	
  8.500	  0.000	 41.60777	 28.66656	  6.52889	 17.37652	 16.87389	  0.42362	 42.69171	702.51001	 29.40	
  8.491	-11.296	 41.60722	 28.41860	  6.80427	 15.03849	 19.17060	  0.36292	 42.66289	702.47998	 29.40	
  8.502	-22.507	 41.59717	 27.70282	  7.36675	 12.95396	 21.26317	  0.28176	 42.66974	702.46997	 29.40	
  8.494	-33.806	 41.63958	 26.60359	  8.32435	 11.14774	 23.18007	  0.19673	 42.70860	702.46002	 29.50	
  8.495	-44.961	 41.60113	 25.05268	  9.57291	  9.53792	 25.01386	  0.12103	 42.67974	702.56000	 29.50	
  8.487	-56.277	 41.58810	 23.13086	 11.16199	  8.19902	 26.56741	  0.05236	 42.68180	702.41998	 29.50	
  8.492	-67.425	 41.55351	 20.98325	 13.00511	  7.24629	 27.76731	  0.01194	 42.68377	702.54999	 29.50	
  8.510	-78.780	 41.52195	 18.67100	 15.09751	  6.64795	 28.46899	 -0.04011	 42.67827	702.52002	 29.50	
  8.500	-90.000	 41.48815	 16.32485	 17.30924	  6.47820	 28.67709	 -0.09345	 42.68209	702.41998	 29.50	
  8.510	-101.220	 41.44356	 14.05279	 19.61262	  6.63798	 28.43032	 -0.11226	 42.69599	702.42999	 29.50	
  8.492	-112.575	 41.40254	 11.98884	 21.91902	  7.25621	 27.59306	 -0.16612	 42.68433	702.46002	 29.50	
  8.487	-123.723	 41.36737	 10.18775	 23.99933	  8.18313	 26.36164	 -0.27332	 42.67645	702.42999	 29.50	
  8.495	-135.039	 41.34050	  8.55831	 25.87809	  9.45388	 24.80747	 -0.08892	 42.68945	702.46997	 29.60	
  8.494	-146.194	 41.30986	  7.25988	 27.36212	 11.02450	 22.95044	 -0.21662	 42.68780	702.53003	 29.60	
  8.502	-157.493	 41.26815	  6.27673	 28.51335	 12.84977	 20.86605	 -0.20800	 42.68053	702.48999	 29.60	
  8.491	-168.704	 41.25436	  5.68613	 29.19055	 15.00125	 18.66051	 -0.18534	 42.66751	702.41998	 29.60	
  8.500	180.000	 41.23655	  5.40855	 29.42739	 17.27811	 16.37800	 -0.03652	 42.67880	702.53003	 29.60	
 10.200	180.000	 40.51428	  2.84506	 31.19605	 16.63634	 15.78454	 -0.60400	 42.68029	702.47998	 29.60	
 10.191	-170.497	 40.53020	  3.07327	 31.00270	 14.33997	 18.00309	 -0.66095	 42.68572	702.53998	 29.60	
 10.210	-161.034	 40.55419	  3.59523	 30.43887	 12.15863	 20.33606	 -0.64481	 42.70962	702.50000	 29.60	
 10.194	-151.526	 40.58384	  4.41410	 29.46727	 10.23593	 22.46943	 -0.64915	 42.69635	702.54999	 29.60	
 10.190	-142.105	 40.59569	  5.52231	 28.14983	  8.49591	 24.54234	 -0.66055	 42.68799	702.53998	 29.70	
 10.215	-132.646	 40.60448	  6.87576	 26.49542	  6.95845	 26.37103	 -0.67531	 42.66202	702.57001	 29.70	
 10.203	-123.092	 40.63864	  8.50086	 24.57125	  5.75192	 27.96943	 -0.66134	 42.65397	702.47998	 29.70	
 10.192	-113.678	 40.69785	 10.34595	 22.48646	  4.88374	 29.16264	 -0.67120	 42.65871	702.54999	 29.70	
 10.208	-104.249	 40.76902	 12.38934	 20.22264	  4.25816	 30.03719	 -0.67777	 42.70666	702.47998	 29.70	
 10.210	-94.801	 40.80469	 14.52886	 17.87345	  3.93645	 30.46466	 -0.66481	 42.70113	702.46997	 29.70	
 10.210	-85.199	 40.83934	 16.88251	 15.54253	  3.90738	 30.48756	 -0.64218	 42.68143	702.54999	 29.70	
 10.208	-75.751	 40.87457	 19.25986	 13.34466	  4.19584	 30.11133	 -0.49647	 42.68299	702.57001	 29.70	
 10.192	-66.322	 40.91450	 21.57914	 11.32806	  4.83585	 29.30791	 -0.59933	 42.68276	702.44000	 29.80	
 10.203	-56.908	 40.92437	 23.76733	  9.50301	  5.71526	 28.13632	 -0.60424	 42.68587	702.50000	 29.80	
 10.215	-47.354	 40.94108	 25.75265	  7.88130	  6.99743	 26.52060	 -0.44305	 42.66765	702.47998	 29.80	
 10.190	-37.895	 40.95982	 27.41459	  6.57845	  8.56350	 24.71007	 -0.46589	 42.67069	702.52002	 29.80	
 10.194	-28.474	 40.98782	 28.74378	  5.55666	 10.33840	 22.66324	 -0.38805	 42.69479	702.50000	 29.80	
 10.210	-18.966	 40.96978	 29.70525	  4.75022	 12.25789	 20.72081	 -0.34682	 42.67844	702.58002	 29.80	
 10.191	 -9.503	 40.98206	 30.28420	  4.27874	 14.44440	 18.49175	 -0.24691	 42.68636	702.62000	 29.80	
 10.200	  0.000	 40.96419	 30.49935	  4.00155	 16.78054	 15.90638	 -0.22470	 42.68399	702.59003	 29.80	
 10.191	  9.503	 40.94942	 30.23068	  4.11853	 19.06695	 13.66825	 -0.14437	 42.67958	702.56000	 29.80	
 10.210	 18.966	 40.92343	 29.61042	  4.52633	 21.15939	 11.46566	 -0.08519	 42.69034	702.52002	 29.80	
 10.194	 28.474	 40.89159	 28.52865	  5.24976	 23.46425	  9.45537	 -0.11486	 42.68880	702.58002	 29.80	
 10.190	 37.895	 40.87234	 27.14889	  6.33391	 25.50034	  7.73501	 -0.18265	 42.68995	702.65002	 29.80	
 10.215	 47.354	 40.81499	 25.41504	  7.61781	 27.30284	  6.08691	 -0.25796	 42.67478	702.53003	 29.80	
 10.203	 56.908	 40.78799	 23.42173	  9.20551	 28.78991	  4.90311	 -0.27730	 42.68196	702.57001	 29.80	
 10.192	 66.322	 40.75446	 21.24135	 11.00660	 29.96165	  4.06933	 -0.28545	 42.68396	702.52002	 29.80	
 10.208	 75.751	 40.69865	 18.87427	 12.98603	 30.78591	  3.45485	 -0.36118	 42.66447	702.57001	 29.90	
 10.210	 85.199	 40.69007	 16.50463	 15.18496	 31.15521	  3.14360	 -0.41517	 42.70047	702.50000	 29.90	
 10.210	 94.801	 40.62526	 14.09812	 17.48980	 31.08644	  3.12127	 -0.28383	 42.68457	702.40997	 29.90	
 10.208	104.249	 40.59739	 11.98792	 19.86267	 30.64328	  3.42407	 -0.43394	 42.70651	702.59998	 29.90	
 10.192	113.678	 40.56902	  9.99074	 22.15539	 29.82312	  4.03773	 -0.19592	 42.68703	702.53003	 29.90	
 10.203	123.092	 40.53872	  8.16738	 24.29128	 28.65831	  4.84211	 -0.53278	 42.68311	702.50000	 29.90	
 10.215	132.646	 40.50977	  6.57306	 26.26711	 27.11258	  6.06001	 -0.40138	 42.68440	702.51001	 29.90	
 10.190	142.105	 40.48415	  5.24642	 27.94707	 25.32672	  7.51748	 -0.58859	 42.66646	702.57001	 29.90	
 10.194	151.526	 40.47427	  4.19574	 29.29087	 23.33291	  9.30978	 -0.58503	 42.68499	702.41998	 30.00	
 10.210	161.034	 40.45693	  3.46804	 30.30517	 21.07615	 11.34338	 -0.64856	 42.66253	702.38000	 30.00	
 10.191	170.497	 40.50328	  3.05991	 30.93475	 18.85773	 13.57920	 -0.61547	 42.69110	702.46002	 30.00	
 11.899	171.783	 39.60588	  0.48955	 32.81809	 18.17196	 12.78269	 -1.04205	 42.66652	702.45001	 30.00	
 11.890	163.610	 39.59759	  0.89188	 32.19501	 20.28493	 10.53621	 -1.02751	 42.67485	702.42999	 30.00	
 11.889	155.445	 39.57997	  1.49494	 31.18399	 22.62669	  8.46744	 -0.99776	 42.66079	702.52002	 30.00	
 11.909	147.299	 39.60668	  2.33545	 30.01121	 24.77681	  6.79940	 -0.98304	 42.68314	702.45001	 30.00	
 11.902	139.148	 39.59610	  3.43758	 28.50202	 26.75887	  5.16303	 -0.98201	 42.65345	702.52002	 30.00	
 11.894	130.867	 39.61937	  4.79673	 26.72386	 28.52131	  3.71216	 -0.95902	 42.65820	702.44000	 30.00	
 11.897	122.732	 39.67145	  6.39142	 24.74943	 29.98855	  2.58489	 -0.91162	 42.69903	702.46997	 30.00	
 11.903	114.597	 39.67359	  8.16963	 22.58245	 31.12474	  1.71906	 -0.85475	 42.64840	702.40997	 30.00	
 11.893	106.346	 39.72097	 10.18514	 20.26429	 32.09799	  1.12803	 -0.82683	 42.66816	702.52002	 30.00	
 11.892	 98.155	 39.75737	 12.34976	 17.85518	 32.69699	  0.78449	 -0.84441	 42.66821	702.38000	 30.00	
 11.900	 90.000	 39.79389	 14.52963	 15.53399	 33.00053	  0.65268	 -0.85325	 42.66983	702.65002	 30.10	
 11.892	 81.845	 39.85095	 16.91137	 13.35542	 32.82767	  0.81593	 -0.82470	 42.68058	702.57001	 30.10	
 11.893	 73.654	 39.87296	 19.32117	 11.22817	 32.22511	  1.19701	 -0.75470	 42.67206	702.48999	 30.10	
 11.903	 65.403	 39.89486	 21.65802	  9.22606	 31.27837	  1.73017	 -0.72148	 42.65528	702.48999	 30.10	
 11.897	 57.268	 39.96348	 23.85909	  7.49799	 30.17528	  2.62723	 -0.69564	 42.68891	702.53998	 30.10	
 11.894	 49.133	 39.99107	 25.88776	  5.88191	 28.68541	  3.84513	 -0.69573	 42.67191	702.54999	 30.10	
 11.902	 40.852	 40.03144	 27.73502	  4.50539	 26.95068	  5.25552	 -0.61670	 42.69345	702.50000	 30.10	
 11.909	 32.701	 40.06548	 29.25615	  3.38933	 24.95132	  6.87177	 -0.51705	 42.67741	702.56000	 30.10	
 11.889	 24.555	 40.10163	 30.49977	  2.56032	 22.77765	  8.66032	 -0.44141	 42.69391	702.60999	 30.10	
 11.890	 16.390	 40.11570	 31.45382	  1.97392	 20.37443	 10.73783	 -0.46846	 42.66519	702.60999	 30.10	
 11.899	  8.217	 40.11673	 32.03356	  1.57194	 18.40225	 12.94574	 -0.55881	 42.65357	702.57001	 30.10	
 11.900	  0.000	 40.10482	 32.26720	  1.45855	 15.99440	 15.17142	 -0.62541	 42.64655	702.53998	 30.10	
 11.899	 -8.217	 40.15295	 32.13395	  1.64622	 13.68802	 17.46218	 -0.67671	 42.67664	702.52002	 30.10	
 11.890	-16.390	 40.15760	 31.60768	  2.13375	 11.49030	 20.02260	 -0.71521	 42.66937	702.56000	 30.20	
 11.889	-24.555	 40.16607	 30.70259	  2.78589	  9.48850	 22.05186	 -0.74593	 42.67869	702.64001	 30.20	
 11.909	-32.701	 40.14624	 29.50305	  3.67982	  7.59874	 24.14059	 -0.80884	 42.65754	702.58002	 30.20	
 11.902	-40.852	 40.14650	 28.10913	  4.76682	  5.88487	 26.11319	 -0.89576	 42.68633	702.57001	 30.20	
 11.894	-49.133	 40.13824	 26.33009	  6.18947	  4.39825	 27.92254	 -0.96085	 42.67540	702.56000	 30.20	
 11.897	-57.268	 40.12752	 24.32518	  7.82026	  3.30851	 29.48053	 -0.95753	 42.66537	702.59003	 30.20	
 11.903	-65.403	 40.09174	 22.14363	  9.57218	  2.41450	 30.69428	 -0.92676	 42.66323	702.58002	 30.20	
 11.893	-73.654	 40.06497	 19.80439	 11.56851	  1.80000	 31.53566	 -0.91754	 42.67369	702.46997	 30.20	
 11.892	-81.845	 40.02328	 17.27169	 13.71605	  1.42639	 32.09779	 -0.93603	 42.67691	702.46997	 30.20	
 11.900	-90.000	 39.96160	 14.93735	 15.91165	  1.29411	 32.28613	 -0.95577	 42.66046	702.54999	 30.20	
 11.892	-98.155	 39.95375	 12.79710	 18.26981	  1.50294	 32.08007	 -0.94009	 42.67431	702.58002	 30.20	
 11.893	-106.346	 39.88230	 10.62462	 20.63644	  1.81290	 31.50709	 -0.95198	 42.65873	702.52002	 30.20	
 11.903	-114.597	 39.83809	  8.63471	 22.91283	  2.39090	 30.61714	 -0.93532	 42.66230	702.51001	 30.20	
 11.897	-122.732	 39.78738	  6.80153	 25.05027	  3.27488	 29.39909	 -0.92743	 42.66055	702.51001	 30.20	
 11.894	-130.867	 39.73399	  5.15748	 26.98142	  4.43800	 27.86634	 -0.95600	 42.65224	702.59998	 30.20	
 11.902	-139.148	 39.71608	  3.70978	 28.77249	  5.87572	 26.06726	 -0.97703	 42.67790	702.62000	 30.20	
 11.909	-147.299	 39.68017	  2.53142	 30.20488	  7.55451	 24.06776	 -0.97255	 42.66873	702.59998	 30.30	
 11.889	-155.445	 39.66852	  1.63379	 31.34723	  9.43329	 21.84550	 -0.95259	 42.65261	702.40002	 30.30	
 11.890	-163.610	 39.65088	  0.96145	 32.20386	 11.41210	 19.64919	 -0.97317	 42.66566	702.52002	 30.30	
 11.899	-171.783	 39.62411	  0.50580	 32.74192	 13.59828	 17.37000	 -1.01774	 42.68509	702.54999	 30.30	
 11.900	180.000	 39.61259	  0.31216	 33.00375	 15.89320	 15.05228	 -1.05869	 42.67175	702.63000	 30.30	
 13.600	180.000	 38.55665	 -2.19877	 34.54991	 15.06375	 14.22367	 -1.36098	 42.66116	702.53003	 30.30	
 13.608	-172.853	 38.57948	 -2.02042	 34.44828	 12.80170	 16.56426	 -1.30891	 42.66590	702.62000	 30.30	
 13.611	-165.583	 38.60205	 -1.58293	 33.92405	 10.57765	 18.90485	 -1.23452	 42.66372	702.59003	 30.30	
 13.601	-158.353	 38.61932	 -1.00823	 33.11005	  8.54500	 21.03096	 -1.18545	 42.63092	702.60999	 30.30	
 13.609	-151.210	 38.64057	 -0.28007	 32.08392	  6.61438	 23.32615	 -1.15860	 42.65884	702.58002	 30.30	
 13.611	-143.999	 38.67795	  0.77704	 30.72046	  4.81711	 25.52004	 -1.15797	 42.66088	702.63000	 30.30	
 13.601	-136.825	 38.69387	  1.99403	 29.14069	  3.25592	 27.40928	 -1.14182	 42.64695	702.53003	 30.30	
 13.596	-129.640	 38.77602	  3.45167	 27.37415	  2.02804	 29.18742	 -1.10775	 42.67047	702.53003	 30.30	
