FileType=PCF
NHL=14
Date=05/30/19	09:40:04
Facility=APL
Serial=16071-2
Customer=NASA
NP=6
Mach=0.550000
Calibration=1:1
CalPts=490
TstPts=95
PortNumbering=AP Standard
Units=Torr C m/s kg/m^3 deg mm 
Theta[deg]	Phi[deg]	P1[Torr]	P2[Torr]	P3[Torr]	P4[Torr]	P5[Torr]	P6[Torr]	Pt[Torr]	Ps[Abs,Torr]	Ts[C]	
  0.000	  0.000	163.41507	 72.98395	 82.83081	 73.77443	 78.25916	  6.77693	163.27980	702.33002	 24.70	
  1.691	128.401	163.39291	 67.68593	 87.51855	 79.69920	 71.23254	  6.66714	163.33607	702.37000	 24.70	
  1.692	 77.194	163.55763	 74.83447	 81.05024	 81.78925	 69.66531	  6.70916	163.41896	702.37000	 24.80	
  1.699	 26.182	163.64716	 80.25733	 75.72067	 77.66335	 74.08908	  6.68163	163.51044	702.39001	 24.90	
  1.699	-26.182	163.66696	 80.23327	 75.69867	 70.36639	 81.47079	  6.63394	163.55318	702.28998	 24.90	
  1.692	-77.194	163.70844	 74.88308	 80.98379	 66.03680	 85.66336	  6.59266	163.63844	702.41998	 25.00	
  1.691	-128.401	163.70764	 67.82057	 87.62376	 67.33443	 84.17992	  6.57487	163.69911	702.42999	 25.00	
  1.700	180.000	163.78435	 64.89335	 90.70101	 73.84151	 78.15859	  6.60870	163.76889	702.32001	 25.10	
  3.400	180.000	163.35536	 56.44714	 98.26984	 72.87949	 77.68685	  6.14074	163.78232	702.40997	 25.20	
  3.388	-152.325	163.38565	 58.47511	 96.27120	 65.35880	 84.93604	  6.13984	163.88840	702.40002	 25.20	
  3.397	-124.529	163.49118	 63.49623	 91.17814	 59.89605	 90.58533	  6.14319	163.91049	702.42999	 25.30	
  3.399	-96.763	163.62540	 70.83821	 84.13837	 57.50343	 93.49896	  6.15729	163.98941	702.34998	 25.30	
  3.394	-69.283	163.80945	 78.56422	 76.77361	 58.61422	 92.56564	  6.18606	164.02519	702.35999	 25.40	
  3.400	-41.398	163.98296	 84.90997	 70.57082	 63.28742	 88.02854	  6.22263	164.05220	702.39001	 25.40	
  3.401	-14.021	164.13272	 88.67536	 67.26198	 70.24574	 81.43857	  6.28845	164.11185	702.46002	 25.50	
  3.401	 14.021	164.19218	 88.56484	 67.42970	 78.30593	 73.16086	  6.32154	164.11607	702.50000	 25.60	
  3.400	 41.398	164.26843	 85.04665	 70.83958	 85.20789	 66.48196	  6.40050	164.19164	702.40002	 25.70	
  3.394	 69.283	164.27405	 78.62077	 77.19067	 89.42984	 62.39630	  6.44704	164.22540	702.40997	 25.70	
  3.399	 96.763	164.19951	 70.90846	 84.54958	 90.06702	 61.55006	  6.40903	164.24731	702.31000	 25.80	
  3.397	124.529	164.08403	 63.37179	 91.76597	 86.91332	 64.31333	  6.35144	164.29541	702.46002	 25.90	
  3.388	152.325	163.93279	 58.59027	 96.72391	 80.54246	 70.02493	  6.24048	164.30034	702.37000	 25.90	
  5.099	161.165	163.05067	 49.86164	104.59814	 79.71080	 68.96299	  5.54171	164.34984	702.32001	 26.00	
  5.109	142.013	163.28273	 53.19452	100.90131	 87.25926	 62.09941	  5.64846	164.41650	702.45001	 26.00	
  5.095	123.033	163.59891	 58.92089	 95.01924	 93.25198	 57.41999	  5.80820	164.47124	702.37000	 26.00	
  5.105	104.191	163.83748	 65.79208	 87.86430	 96.92487	 54.79672	  5.85111	164.49646	702.40997	 26.10	
  5.093	 85.207	164.04276	 74.03305	 80.03674	 97.98708	 54.12849	  5.87284	164.52365	702.45001	 26.10	
  5.104	 66.290	164.23557	 81.91054	 72.51865	 96.37143	 55.67040	  5.86452	164.59782	702.34998	 26.20	
  5.094	 47.331	164.33682	 88.66548	 66.22633	 92.13714	 58.98854	  5.86773	164.64180	702.33002	 26.20	
  5.089	 28.397	164.41762	 94.06529	 61.61812	 85.96086	 64.96631	  5.80571	164.69798	702.42999	 26.30	
  5.096	  9.576	164.38884	 96.85632	 59.05565	 78.33410	 72.32566	  5.75853	164.69319	702.27002	 26.30	
  5.096	 -9.576	164.39597	 96.96236	 59.06907	 70.04075	 80.91084	  5.72172	164.77577	702.33002	 26.40	
  5.089	-28.397	164.28621	 94.57031	 61.37369	 62.57979	 88.28881	  5.68589	164.80046	702.37000	 26.50	
  5.094	-47.331	164.16226	 88.98951	 66.00422	 56.21228	 94.95343	  5.64058	164.85184	702.33002	 26.50	
  5.104	-66.290	163.99976	 82.29273	 72.33012	 51.63735	100.04929	  5.62608	164.89563	702.34998	 26.50	
  5.093	-85.207	163.79076	 74.62984	 79.75459	 49.50412	101.92665	  5.59685	164.90306	702.41998	 26.60	
  5.105	-104.191	163.64172	 66.55229	 87.48813	 49.79442	101.39330	  5.57507	164.90196	702.40002	 26.60	
  5.095	-123.033	163.64438	 59.46832	 94.88866	 52.73621	 98.31866	  5.60292	165.01357	702.38000	 26.70	
  5.109	-142.013	163.59468	 53.70909	100.86439	 57.61457	 92.04720	  5.54120	164.99603	702.46002	 26.80	
  5.099	-161.165	163.64063	 50.16749	104.80482	 64.48866	 85.00725	  5.57968	165.05919	702.38000	 26.80	
  5.100	180.000	163.73155	 49.03255	106.21272	 72.19617	 77.51124	  5.57426	165.10475	702.38000	 26.90	
  6.800	180.000	162.31535	 40.69521	113.59672	 70.70126	 76.17942	  4.99381	165.09964	702.27002	 27.00	
  6.796	-166.229	162.37505	 41.82350	112.58717	 63.11992	 83.80399	  5.00732	165.18918	702.41998	 27.00	
  6.808	-152.311	162.35419	 44.54961	109.74775	 56.08548	 91.32380	  5.04419	165.20752	702.38000	 27.00	
  6.795	-138.383	162.44096	 48.34639	104.75546	 50.33207	 98.29302	  5.06760	165.25786	702.34003	 27.00	
  6.792	-124.591	162.48256	 53.62406	 98.80406	 46.07125	103.63005	  5.05725	165.24919	702.34003	 27.10	
  6.787	-110.754	162.58400	 60.35268	 91.77754	 42.79121	106.85492	  5.03336	165.25946	702.42999	 27.20	
  6.800	-96.985	162.76024	 67.80848	 84.32675	 41.09788	108.89761	  5.11551	165.30492	702.39001	 27.20	
  6.800	-83.015	162.96643	 75.63625	 76.80853	 41.56368	108.83472	  5.16784	165.30861	702.28998	 27.20	
  6.787	-69.246	163.24229	 83.13778	 69.78748	 43.49266	106.99387	  5.20369	165.37714	702.34003	 27.30	
  6.792	-55.409	163.50865	 90.49094	 63.40900	 47.08809	103.23789	  5.20588	165.37527	702.27002	 27.30	
  6.795	-41.617	163.79761	 96.77980	 58.13856	 52.36613	 98.35684	  5.21186	165.44356	702.28998	 27.40	
  6.808	-27.689	163.94148	101.14220	 53.90100	 58.72880	 90.99682	  5.26175	165.43121	702.28003	 27.40	
  6.796	-13.771	164.20300	103.96783	 51.41424	 66.12769	 83.63277	  5.24664	165.50632	702.31000	 27.50	
  6.800	  0.000	164.31453	104.95078	 50.48518	 73.79132	 75.71674	  5.19809	165.52934	702.29999	 27.50	
  6.796	 13.771	164.41364	103.98894	 51.47194	 81.75282	 67.97023	  5.22730	165.56821	702.35999	 27.50	
  6.808	 27.689	164.44913	101.10383	 54.06697	 89.16998	 60.85986	  5.20748	165.61354	702.37000	 27.60	
  6.795	 41.617	164.40689	 96.58704	 58.30988	 95.72027	 55.43283	  5.20856	165.56845	702.28998	 27.60	
  6.792	 55.409	164.38438	 89.78645	 63.88852	100.80590	 50.77442	  5.22613	165.56671	702.40002	 27.60	
  6.787	 69.246	164.33292	 82.86358	 70.51041	104.26289	 47.01830	  5.24223	165.59856	702.38000	 27.70	
  6.800	 83.015	164.22005	 75.45399	 77.69596	105.96963	 45.28090	  5.26914	165.64618	702.39001	 27.70	
  6.800	 96.985	164.08421	 67.24767	 85.38722	105.69234	 45.46611	  5.27876	165.69684	702.37000	 27.70	
  6.787	110.754	163.93217	 59.89682	 92.84445	103.24940	 47.65529	  5.24149	165.70566	702.40002	 27.80	
  6.792	124.591	163.71680	 53.35613	 99.70862	 99.10596	 51.72559	  5.23446	165.72774	702.40002	 27.80	
  6.795	138.383	163.54872	 48.70430	105.55299	 93.52290	 56.22274	  5.17197	165.72566	702.42999	 27.90	
  6.808	152.311	163.37169	 44.66457	109.94304	 86.44797	 61.59183	  5.00252	165.76147	702.40997	 27.90	
  6.796	166.229	163.26236	 42.12700	113.08225	 78.76468	 68.66540	  4.95462	165.77669	702.35999	 28.00	
  8.491	168.704	161.46066	 33.18899	119.86008	 77.02966	 67.09630	  4.67293	165.84656	702.40002	 28.00	
  8.502	157.493	161.64198	 34.77879	117.72185	 85.01074	 60.17634	  4.69237	165.88962	702.34003	 28.10	
  8.494	146.194	161.84674	 38.16423	113.93752	 92.64848	 54.15469	  4.82220	165.90569	702.33002	 28.10	
  8.495	135.039	162.05540	 43.00288	108.98993	 99.27335	 48.65647	  4.91636	165.90445	702.48999	 28.20	
  8.487	123.723	162.23056	 48.91759	102.31644	104.95047	 42.74094	  4.89107	165.90559	702.45001	 28.30	
  8.492	112.575	162.53941	 54.74135	 95.39294	109.25890	 39.55473	  4.79714	165.97713	702.37000	 28.30	
  8.510	101.220	162.81290	 62.05472	 87.88367	112.54497	 37.59899	  4.76069	166.02364	702.41998	 28.40	
  8.500	 90.000	163.04485	 69.90709	 80.22284	113.55376	 37.13321	  4.73432	166.01097	702.44000	 28.50	
  8.510	 78.780	163.24643	 77.96593	 72.75419	113.17374	 37.77587	  4.73877	166.04477	702.40997	 28.50	
  8.492	 67.425	163.40623	 85.48327	 65.55384	111.01527	 39.89946	  4.76611	166.02243	702.34998	 28.50	
  8.487	 56.277	163.44102	 93.03309	 59.03567	107.35086	 42.88253	  4.79041	165.96201	702.41998	 28.50	
  8.495	 44.961	163.60965	 99.63899	 53.45706	102.48691	 47.43884	  4.82820	166.07347	702.40002	 28.50	
  8.494	 33.806	163.63599	104.86732	 48.64981	 95.78529	 53.70731	  4.86480	166.07285	702.46997	 28.60	
  8.502	 22.507	163.59882	109.37157	 45.17656	 88.72522	 59.42201	  4.95846	166.06952	702.33002	 28.60	
  8.491	 11.296	163.62398	111.88429	 43.25727	 81.17409	 66.63783	  5.03613	166.12454	702.42999	 28.60	
  8.500	  0.000	163.55254	112.90710	 42.31623	 72.96230	 74.50626	  5.11607	166.13397	702.44000	 28.70	
  8.491	-11.296	163.40340	112.20876	 42.75557	 64.98374	 82.60982	  5.09850	166.11194	702.40997	 28.70	
  8.502	-22.507	163.26549	109.81551	 44.86276	 57.55750	 90.27370	  5.14620	166.12254	702.41998	 28.80	
  8.494	-33.806	163.13872	105.94751	 48.29452	 50.57721	 98.32964	  5.17022	166.19463	702.48999	 28.80	
  8.495	-44.961	162.90620	100.24955	 52.94484	 44.61456	104.22927	  5.11208	166.16452	702.35999	 28.90	
  8.487	-56.277	162.63092	 94.18666	 58.40768	 39.59994	109.40594	  5.05838	166.17528	702.39001	 28.90	
  8.492	-67.425	162.42610	 86.45112	 64.81023	 36.22279	113.81441	  5.09904	166.21225	702.41998	 28.90	
  8.510	-78.780	162.21889	 78.49740	 72.01110	 33.98232	116.32677	  5.07345	166.27072	702.46997	 29.00	
  8.500	-90.000	162.01439	 70.85443	 79.34308	 33.00547	117.02284	  5.01984	166.29161	702.47998	 29.00	
  8.510	-101.220	161.80167	 62.98354	 86.98988	 33.32291	116.26578	  4.93500	166.27776	702.35999	 29.00	
  8.492	-112.575	161.69151	 55.61540	 94.69153	 35.02483	113.76517	  4.90554	166.28139	702.45001	 29.10	
  8.487	-123.723	161.67468	 48.97908	101.78180	 38.19303	109.91434	  4.85576	166.33931	702.40002	 29.10	
  8.495	-135.039	161.61678	 43.80438	108.12554	 42.46283	104.73766	  4.85207	166.37050	702.45001	 29.20	
  8.494	-146.194	161.61314	 39.23985	113.30416	 48.41505	 98.33582	  4.86264	166.37726	702.46002	 29.20	
  8.502	-157.493	161.64056	 35.05130	117.31206	 54.36166	 91.16737	  4.80619	166.38100	702.52002	 29.20	
  8.491	-168.704	161.66537	 32.95671	120.10995	 61.55727	 83.23479	  4.79266	166.36708	702.46002	 29.20	
  8.500	180.000	161.83038	 32.58604	121.00606	 69.38653	 75.08193	  4.72982	166.40271	702.53003	 29.30	
 10.200	180.000	159.46133	 23.69300	127.29134	 67.13293	 73.21177	  4.78429	166.45708	702.54999	 29.40	
 10.191	-170.497	159.33981	 24.10781	126.44639	 59.24334	 81.52348	  4.83207	166.44313	702.45001	 29.40	
 10.210	-161.034	159.24240	 25.55805	124.43660	 52.24430	 89.66203	  4.87012	166.46365	702.33002	 29.50	
 10.194	-151.526	159.22433	 28.54800	120.63428	 45.46506	 97.08526	  4.90138	166.43802	702.45001	 29.50	
 10.190	-142.105	159.23129	 32.52840	116.06715	 39.07099	103.94321	  4.85698	166.44333	702.34003	 29.60	
 10.215	-132.646	159.18558	 38.20972	110.36417	 33.81644	110.16360	  4.87531	166.41629	702.38000	 29.60	
 10.203	-123.092	159.32864	 44.24878	103.77694	 29.80369	115.36137	  4.95623	166.45515	702.40997	 29.60	
 10.192	-113.678	159.44701	 50.40379	 96.55708	 26.82308	119.33910	  4.99685	166.46223	702.53003	 29.60	
 10.208	-104.249	159.54025	 57.60408	 88.87035	 24.82723	122.25585	  5.07380	166.49176	702.47998	 29.70	
 10.210	-94.801	159.76262	 65.22878	 81.12254	 24.00347	123.73721	  5.09682	166.52052	702.41998	 29.70	
 10.210	-85.199	159.94279	 73.00782	 73.66585	 24.60696	123.69006	  5.12634	166.47392	702.40002	 29.80	
 10.208	-75.751	160.19591	 81.09683	 66.25819	 25.65082	122.37883	  5.15081	166.50821	702.31000	 29.80	
 10.192	-66.322	160.48584	 89.34896	 59.35751	 28.15597	119.55508	  5.20524	166.50008	702.40997	 29.80	
 10.203	-56.908	160.75281	 96.64052	 52.94012	 31.64182	115.60500	  5.21524	166.48167	702.34003	 29.90	
 10.215	-47.354	161.04102	103.49741	 47.16690	 36.25874	110.40370	  5.23925	166.47617	702.52002	 29.90	
 10.190	-37.895	161.38205	109.20391	 42.35044	 42.00734	104.24267	  5.27069	166.51588	702.44000	 29.90	
 10.194	-28.474	161.60255	113.70396	 38.64823	 48.64614	 97.26644	  5.22723	166.52565	702.44000	 30.00	
 10.210	-18.966	161.84366	117.18391	 35.94023	 56.01250	 88.89702	  5.23012	166.57811	702.51001	 30.00	
 10.191	 -9.503	162.02936	119.11854	 34.43526	 63.75583	 81.07547	  5.22102	166.55554	702.46997	 30.10	
 10.200	  0.000	162.16998	119.77433	 34.18723	 71.67999	 72.96098	  5.19056	166.57491	702.46997	 30.10	
 10.191	  9.503	162.23357	119.01268	 34.80766	 79.84716	 65.06979	  5.08102	166.56693	702.50000	 30.10	
 10.210	 18.966	162.18077	116.88712	 36.34752	 87.70261	 57.63011	  5.01519	166.52577	702.46997	 30.10	
 10.194	 28.474	162.20517	113.34425	 39.10980	 95.33113	 51.33253	  4.91354	166.56076	702.46997	 30.10	
 10.190	 37.895	162.25455	108.67702	 43.10065	102.05108	 44.65250	  4.80459	166.57874	702.54999	 30.20	
 10.215	 47.354	162.14590	102.54530	 47.88561	108.04987	 39.25576	  4.68710	166.55064	702.53003	 30.20	
 10.203	 56.908	162.13971	 96.09667	 53.85031	113.37445	 35.00789	  4.66549	166.59706	702.53003	 30.20	
 10.192	 66.322	162.06371	 87.99417	 60.43073	117.19466	 32.00772	  4.57489	166.63368	702.52002	 30.30	
 10.208	 75.751	161.87270	 80.34371	 67.39568	119.66223	 29.92821	  4.56210	166.57411	702.46002	 30.30	
 10.210	 85.199	161.71231	 72.35426	 74.83852	120.76735	 28.97914	  4.51259	166.61655	702.51001	 30.40	
 10.210	 94.801	161.48776	 64.30586	 82.52094	120.56327	 28.55195	  4.51965	166.64993	702.46002	 30.40	
 10.208	104.249	161.26437	 56.50983	 90.29588	118.64270	 29.69434	  4.56822	166.62497	702.50000	 30.40	
 10.192	113.678	161.00374	 50.05857	 97.96490	115.51934	 31.75784	  4.64265	166.61337	702.56000	 30.50	
 10.203	123.092	160.76297	 43.09512	104.94743	111.27564	 34.95011	  4.77030	166.65585	702.44000	 30.50	
 10.215	132.646	160.54050	 36.90861	111.41933	105.43233	 39.38308	  4.90060	166.66991	702.40997	 30.50	
 10.190	142.105	160.40495	 32.06828	117.34695	 99.06754	 46.16326	  4.95335	166.69093	702.45001	 30.50	
 10.194	151.526	160.18159	 28.50270	121.74384	 91.40110	 52.16130	  4.82516	166.65132	702.41998	 30.60	
 10.210	161.034	160.03302	 25.70452	124.97703	 83.36771	 58.91243	  4.73691	166.68324	702.53003	 30.60	
 10.191	170.497	159.89291	 24.45534	126.78175	 75.21111	 65.64310	  4.72764	166.66695	702.50000	 30.70	
 11.899	171.783	156.95146	 15.10915	132.72643	 72.50110	 63.90698	  4.87225	166.66789	702.46002	 30.70	
 11.890	163.610	157.16670	 16.38173	131.09225	 80.74717	 56.77847	  4.89557	166.68323	702.46002	 30.70	
 11.889	155.445	157.35886	 18.65935	128.34930	 89.06411	 49.91168	  5.00060	166.72226	702.60999	 30.70	
 11.909	147.299	157.44939	 21.55579	124.58900	 97.21489	 43.31197	  5.07602	166.72830	702.42999	 30.80	
 11.902	139.148	157.66151	 25.90532	119.59871	103.91345	 36.76147	  5.06649	166.69923	702.52002	 30.80	
 11.894	130.867	157.93871	 31.10989	113.72769	110.35316	 31.11190	  4.93665	166.72229	702.45001	 30.80	
 11.897	122.732	158.12013	 36.75351	106.81828	116.29850	 26.92326	  4.79878	166.70610	702.47998	 30.90	
 11.903	114.597	158.34143	 43.77780	 99.86864	120.71021	 23.44645	  4.87015	166.70305	702.46997	 30.90	
 11.893	106.346	158.62288	 51.39169	 92.10152	124.12907	 21.15765	  4.66081	166.73393	702.59003	 31.00	
 11.892	 98.155	158.92886	 58.36931	 84.08638	126.23531	 19.96263	  4.60176	166.73076	702.46002	 31.00	
 11.900	 90.000	159.18713	 66.12759	 76.36247	127.19991	 19.93310	  4.60921	166.73413	702.50000	 31.10	
 11.892	 81.845	159.40543	 73.87350	 69.05274	126.98895	 20.39061	  4.61798	166.74841	702.48999	 31.10	
 11.893	 73.654	159.63660	 82.25151	 61.62654	125.46625	 21.65771	  4.69350	166.77528	702.51001	 31.10	
 11.903	 65.403	159.76353	 90.20239	 54.49273	122.69793	 23.82098	  4.71858	166.75829	702.47998	 31.20	
 11.897	 57.268	159.93268	 97.98623	 48.16353	118.84044	 27.11095	  4.79726	166.76820	702.54999	 31.20	
 11.894	 49.133	160.03317	104.80944	 42.23033	113.83218	 31.25748	  4.93459	166.80070	702.42999	 31.20	
 11.902	 40.852	160.10977	111.19521	 37.07818	108.06262	 36.27389	  4.93093	166.81079	702.48999	 31.20	
 11.909	 32.701	160.07643	116.36768	 32.93774	101.00412	 41.95613	  4.98859	166.75488	702.48999	 31.20	
 11.889	 24.555	160.13669	120.51831	 29.71057	 94.15283	 48.85859	  5.06195	166.78940	702.46002	 31.20	
 11.890	 16.390	160.15306	123.59093	 27.34365	 86.08430	 56.20108	  5.14241	166.80344	702.65997	 31.20	
 11.899	  8.217	160.06734	125.62973	 25.90228	 77.97981	 62.99228	  5.19784	166.79736	702.52002	 31.20	
 11.900	  0.000	160.00204	126.28970	 25.60579	 69.86015	 70.82059	  5.25970	166.78305	702.45001	 31.30	
 11.899	 -8.217	159.87823	125.74779	 25.63681	 61.99440	 78.85760	  5.30675	166.79080	702.60999	 31.30	
 11.890	-16.390	159.70752	124.06243	 26.87018	 54.26552	 86.91846	  5.31976	166.81021	702.54999	 31.40	
 11.889	-24.555	159.49438	121.15127	 29.11948	 46.83460	 95.16454	  5.33685	166.79295	702.50000	 31.40	
 11.909	-32.701	159.24887	117.15388	 32.06395	 39.72018	102.72501	  5.35061	166.81152	702.46002	 31.40	
 11.902	-40.852	159.05049	112.01401	 36.17857	 33.52296	109.57819	  5.38159	166.85411	702.48999	 31.50	
 11.894	-49.133	158.74438	105.88121	 41.29400	 28.08376	115.63536	  5.32029	166.82578	702.59998	 31.50	
 11.897	-57.268	158.44946	 99.09546	 47.09243	 23.62152	120.73756	  5.39134	166.82074	702.59003	 31.60	
 11.903	-65.403	158.11603	 91.74320	 53.44406	 20.04174	124.89675	  5.33402	166.82936	702.50000	 31.60	
 11.893	-73.654	157.80832	 83.76198	 60.40168	 17.39361	127.91504	  5.26719	166.84807	702.57001	 31.60	
 11.892	-81.845	157.60619	 75.37351	 67.83791	 15.91840	129.65056	  5.26234	166.87039	702.46997	 31.70	
 11.900	-90.000	157.29404	 67.11133	 74.95741	 15.29709	130.21989	  5.20398	166.80147	702.34998	 31.70	
 11.892	-98.155	157.14113	 59.50338	 82.67933	 15.22050	129.59779	  5.23522	166.87671	702.56000	 31.80	
 11.893	-106.346	156.89891	 51.92447	 90.60655	 16.31047	127.77807	  5.25238	166.82677	702.47998	 31.80	
 11.903	-114.597	156.78746	 45.23108	 98.44555	 18.36941	124.68805	  5.18824	166.82899	702.51001	 31.80	
 11.897	-122.732	156.76993	 38.82035	105.66674	 21.53140	120.52712	  5.14469	166.87300	702.58002	 31.80	
 11.894	-130.867	156.69760	 32.00698	112.31474	 25.66499	115.38618	  5.02621	166.83946	702.56000	 31.80	
 11.902	-139.148	156.67703	 26.69601	118.47240	 30.45896	109.32365	  5.01297	166.84695	702.53998	 31.90	
 11.909	-147.299	156.64874	 22.28082	123.78716	 35.99973	102.57529	  5.03032	166.86580	702.51001	 31.90	
 11.889	-155.445	156.73267	 18.96898	127.88522	 42.52295	 95.37173	  4.98399	166.85783	702.48999	 31.90	
 11.890	-163.610	156.75017	 16.40988	130.83769	 50.37622	 87.72554	  5.01636	166.83963	702.51001	 32.00	
 11.899	-171.783	156.85846	 15.01362	132.70323	 57.02941	 79.48152	  5.01570	166.91801	702.50000	 32.00	
 11.900	180.000	156.99171	 15.07348	133.33044	 64.73849	 71.14318	  4.94371	166.85878	702.45001	 32.00	
 13.600	180.000	153.57646	  5.68572	138.87917	 61.80124	 68.74840	  5.06226	166.89835	702.46002	 32.00	
 13.608	-172.853	153.33965	  5.43826	138.32907	 54.86914	 76.24290	  5.19977	166.89688	702.48999	 32.10	
 13.611	-165.583	153.25992	  6.57889	136.65590	 47.20183	 85.35561	  5.13589	166.92125	702.46002	 32.10	
 13.601	-158.353	153.29036	  9.11660	133.96202	 39.29923	 93.10959	  5.21165	166.93884	702.53003	 32.20	
 13.609	-151.210	153.24779	 12.25160	130.31911	 32.71683	100.40572	  5.17826	166.92558	702.48999	 32.20	
 13.611	-143.999	153.23453	 16.12081	125.73550	 26.69571	107.73949	  5.16929	166.94830	702.50000	 32.20	
 13.601	-136.825	153.27155	 20.70034	120.30135	 21.56379	114.20029	  5.18093	166.92915	702.51001	 32.30	
 13.596	-129.640	153.18845	 25.94965	114.07182	 16.92127	120.10040	  5.28417	166.87346	702.50000	 32.30	
