FileType=PCF
NHL=14
Date=03/15/19	08:46:52
Facility=APL
Serial=16071-2
Customer=NASA
NP=6
Mach=0.230000
Calibration=1:1
CalPts=490
TstPts=95
PortNumbering=AP Standard
Units=Torr C m/s kg/m^3 deg mm 
Theta[deg]	Phi[deg]	P1[Torr]	P2[Torr]	P3[Torr]	P4[Torr]	P5[Torr]	P6[Torr]	Pt[Torr]	Ps[Abs,Torr]	Ts[C]	
  0.000	  0.000	 25.63921	 10.16536	 11.88216	 10.91085	 10.88732	  0.67492	 25.64754	703.34003	 20.30	
  1.691	128.401	 25.63733	  9.27540	 12.71125	 11.92683	  9.81547	  0.65556	 25.66988	703.38000	 20.30	
  1.692	 77.194	 25.65366	 10.42694	 11.56681	 12.25405	  9.56935	  0.69539	 25.66668	703.50000	 20.30	
  1.699	 26.182	 25.66927	 11.41247	 10.65864	 11.55214	 10.26374	  0.70445	 25.68148	703.45001	 20.30	
  1.699	-26.182	 25.66490	 11.43120	 10.65065	 10.31820	 11.49173	  0.68474	 25.67821	703.40997	 20.30	
  1.692	-77.194	 25.65117	 10.47120	 11.55294	  9.55304	 12.24047	  0.64126	 25.68118	703.46002	 20.30	
  1.691	-128.401	 25.63915	  9.30118	 12.69567	  9.78753	 11.94283	  0.61082	 25.67681	703.39001	 20.30	
  1.700	180.000	 25.64001	  8.77808	 13.23598	 10.82769	 10.85538	  0.60797	 25.67272	703.29999	 20.40	
  3.400	180.000	 25.55281	  7.36085	 14.54762	 10.67307	 10.72112	  0.50434	 25.68262	703.34003	 20.40	
  3.388	-152.325	 25.57115	  7.67373	 14.22275	  9.41782	 12.02512	  0.49818	 25.68439	703.45001	 20.40	
  3.397	-124.529	 25.58929	  8.53576	 13.31796	  8.49429	 13.07153	  0.50071	 25.69810	703.40002	 20.40	
  3.399	-96.763	 25.61966	  9.78112	 12.05224	  8.09724	 13.61481	  0.52792	 25.70555	703.34998	 20.40	
  3.394	-69.283	 25.64230	 11.10122	 10.78970	  8.28797	 13.46379	  0.56355	 25.70947	703.34998	 20.40	
  3.400	-41.398	 25.65939	 12.25254	  9.75515	  9.04472	 12.68403	  0.61024	 25.69809	703.34003	 20.40	
  3.401	-14.021	 25.67728	 12.90558	  9.17731	 10.23469	 11.48128	  0.66783	 25.70936	703.54999	 20.40	
  3.401	 14.021	 25.68091	 12.89168	  9.19908	 11.59200	 10.13934	  0.68733	 25.71143	703.39001	 20.40	
  3.400	 41.398	 25.68365	 12.21715	  9.77127	 12.75334	  9.04231	  0.69755	 25.71911	703.53003	 20.40	
  3.394	 69.283	 25.68331	 11.04663	 10.83619	 13.50976	  8.33355	  0.67780	 25.72379	703.46002	 20.40	
  3.399	 96.763	 25.65079	  9.69829	 12.10330	 13.63080	  8.17257	  0.63336	 25.70732	703.47998	 20.50	
  3.397	124.529	 25.63103	  8.48483	 13.34450	 13.07856	  8.58050	  0.58538	 25.72588	703.51001	 20.50	
  3.388	152.325	 25.61137	  7.64637	 14.25896	 11.99831	  9.50829	  0.54454	 25.71999	703.50000	 20.50	
  5.099	161.165	 25.43772	  6.11692	 15.59775	 11.82109	  9.23969	  0.34009	 25.71739	703.53998	 20.50	
  5.109	142.013	 25.48091	  6.71535	 14.93999	 13.12591	  8.13317	  0.36932	 25.73450	703.44000	 20.50	
  5.095	123.033	 25.48853	  7.65298	 13.86775	 14.17150	  7.30458	  0.43864	 25.72541	703.35999	 20.50	
  5.105	104.191	 25.53828	  8.82335	 12.62587	 14.81499	  6.85733	  0.52588	 25.73521	703.39001	 20.50	
  5.093	 85.207	 25.57234	 10.19676	 11.27337	 14.99037	  6.76438	  0.56908	 25.73191	703.39001	 20.50	
  5.104	 66.290	 25.59652	 11.56913	  9.99481	 14.68141	  7.06633	  0.60650	 25.72812	704.21002	 20.50	
  5.094	 47.331	 25.63508	 12.83582	  8.90629	 13.92062	  7.72592	  0.60889	 25.74017	703.53998	 20.50	
  5.089	 28.397	 25.62665	 13.75223	  8.15212	 12.78799	  8.74713	  0.63186	 25.72956	703.45001	 20.50	
  5.096	  9.576	 25.64924	 14.26700	  7.76194	 11.49207	  9.97542	  0.61802	 25.75464	703.42999	 20.60	
  5.096	 -9.576	 25.63825	 14.28211	  7.73197	 10.09851	 11.36744	  0.57844	 25.74888	703.42999	 20.60	
  5.089	-28.397	 25.61532	 13.79350	  8.13995	  8.82306	 12.67966	  0.54124	 25.73641	703.53998	 20.60	
  5.094	-47.331	 25.59618	 12.89758	  8.91276	  7.78382	 13.82137	  0.49081	 25.74479	703.48999	 20.60	
  5.104	-66.290	 25.58052	 11.67870	 10.00650	  7.08268	 14.60005	  0.44085	 25.75728	703.48999	 20.60	
  5.093	-85.207	 25.52736	 10.31000	 11.24918	  6.71940	 14.92903	  0.40475	 25.73614	703.52002	 20.60	
  5.105	-104.191	 25.51606	  8.94896	 12.60415	  6.76095	 14.80062	  0.36037	 25.74887	703.52002	 20.60	
  5.095	-123.033	 25.49282	  7.72842	 13.89073	  7.21187	 14.17262	  0.34929	 25.76507	703.45001	 20.60	
  5.109	-142.013	 25.47724	  6.77240	 14.94605	  8.02008	 13.18888	  0.33625	 25.75725	703.41998	 20.60	
  5.099	-161.165	 25.47485	  6.17818	 15.60274	  9.15524	 11.91534	  0.28484	 25.76248	703.50000	 20.70	
  5.100	180.000	 25.46309	  5.93838	 15.84859	 10.47565	 10.52281	  0.34496	 25.74738	703.53998	 20.70	
  6.800	180.000	 25.21955	  4.45738	 17.07186	 10.17150	 10.27597	  0.09350	 25.76866	703.51001	 20.70	
  6.796	-166.229	 25.21095	  4.60015	 16.89528	  8.88253	 11.59068	  0.07865	 25.76187	703.53998	 20.70	
  6.808	-152.311	 25.19763	  5.01316	 16.39001	  7.68755	 12.91979	  0.08124	 25.75523	703.54999	 20.70	
  6.795	-138.383	 25.22636	  5.71387	 15.59442	  6.69716	 14.10079	  0.07388	 25.75811	703.51001	 20.70	
  6.792	-124.591	 25.25212	  6.64570	 14.56130	  5.96042	 15.06570	  0.07681	 25.76619	703.46997	 20.70	
  6.787	-110.754	 25.28588	  7.78632	 13.33686	  5.47755	 15.76863	  0.08966	 25.76661	703.53998	 20.70	
  6.800	-96.985	 25.31516	  9.06482	 12.03370	  5.23699	 16.16800	  0.12187	 25.77600	703.51001	 20.70	
  6.800	-83.015	 25.35057	 10.42807	 10.70950	  5.28497	 16.19405	  0.17035	 25.76833	703.48999	 20.80	
  6.787	-69.246	 25.37945	 11.76702	  9.47929	  5.60663	 15.84470	  0.21191	 25.76568	703.53003	 20.80	
  6.792	-55.409	 25.41725	 13.02074	  8.40620	  6.18323	 15.20564	  0.28994	 25.76889	703.54999	 20.80	
  6.795	-41.617	 25.46556	 14.10503	  7.49605	  7.02610	 14.26732	  0.25376	 25.77909	703.46997	 20.80	
  6.808	-27.689	 25.48564	 14.95461	  6.80468	  8.08518	 13.09321	  0.33420	 25.76292	703.40997	 20.80	
  6.796	-13.771	 25.51276	 15.47023	  6.39986	  9.32905	 11.79432	  0.41141	 25.77678	703.53998	 20.80	
  6.800	  0.000	 25.52853	 15.64371	  6.26355	 10.65175	 10.44768	  0.46542	 25.78742	703.47998	 20.80	
  6.796	 13.771	 25.52839	 15.44867	  6.41145	 11.96488	  9.16568	  0.50248	 25.78900	703.54999	 20.90	
  6.808	 27.689	 25.50278	 14.90976	  6.80722	 13.26293	  7.97325	  0.50858	 25.76732	703.54999	 20.90	
  6.795	 41.617	 25.49961	 14.03527	  7.49210	 14.41928	  6.96743	  0.44125	 25.76904	703.56000	 20.90	
  6.792	 55.409	 25.49355	 12.91839	  8.41373	 15.32777	  6.19610	  0.37329	 25.79386	703.58002	 20.90	
  6.787	 69.246	 25.46926	 11.64460	  9.52092	 15.96564	  5.65456	  0.45431	 25.77802	703.53003	 20.90	
  6.800	 83.015	 25.42659	 10.30866	 10.74869	 16.24741	  5.38530	  0.31732	 25.78909	703.51001	 20.90	
  6.800	 96.985	 25.37584	  8.92106	 12.05727	 16.19790	  5.36291	  0.33589	 25.77597	703.51001	 20.90	
  6.787	110.754	 25.35018	  7.69884	 13.34827	 15.80418	  5.56941	  0.27652	 25.79255	703.39001	 20.90	
  6.792	124.591	 25.31074	  6.59096	 14.55893	 15.09326	  6.06432	  0.29134	 25.79040	703.56000	 20.90	
  6.795	138.383	 25.28318	  5.69015	 15.59349	 14.09155	  6.83207	  0.17812	 25.78700	703.57001	 20.90	
  6.808	152.311	 25.25701	  5.00665	 16.40584	 12.87426	  7.84228	  0.12947	 25.79579	703.58002	 21.00	
  6.796	166.229	 25.24115	  4.60454	 16.89630	 11.51861	  9.01415	  0.09948	 25.78481	703.48999	 21.00	
  8.491	168.704	 24.88472	  3.03174	 18.09538	 11.20105	  8.64973	 -0.13533	 25.78593	703.42999	 21.00	
  8.502	157.493	 24.89851	  3.32831	 17.69083	 12.58269	  7.42014	 -0.13373	 25.78774	703.59003	 21.00	
  8.494	146.194	 24.91653	  3.87843	 16.98518	 13.89715	  6.30445	 -0.07479	 25.78459	703.64001	 21.00	
  8.495	135.039	 24.95557	  4.61647	 16.08908	 15.05255	  5.39192	 -0.06114	 25.79824	703.59003	 21.00	
  8.487	123.723	 24.99184	  5.57759	 14.98212	 16.04328	  4.63619	 -0.04075	 25.79848	703.51001	 21.00	
  8.492	112.575	 25.03163	  6.66595	 13.76154	 16.80618	  4.12675	 -0.01630	 25.80437	703.63000	 21.00	
  8.510	101.220	 25.06269	  7.92016	 12.40853	 17.31265	  3.83544	  0.02861	 25.78522	703.62000	 21.00	
  8.500	 90.000	 25.10532	  9.23810	 11.08119	 17.49764	  3.75358	  0.05304	 25.78112	703.66998	 21.10	
  8.510	 78.780	 25.15557	 10.63444	  9.79119	 17.41756	  3.88093	  0.11477	 25.79651	703.62000	 21.10	
  8.492	 67.425	 25.19828	 12.04545	  8.55099	 17.03282	  4.22518	  0.10551	 25.80127	703.65997	 21.10	
  8.487	 56.277	 25.22784	 13.35322	  7.46439	 16.36992	  4.80128	  0.14261	 25.80155	703.65997	 21.10	
  8.495	 44.961	 25.26134	 14.53944	  6.52728	 15.46760	  5.59162	  0.16512	 25.80733	703.59003	 21.10	
  8.494	 33.806	 25.26619	 15.50450	  5.76507	 14.39608	  6.50828	  0.29166	 25.80504	703.60999	 21.10	
  8.502	 22.507	 25.27665	 16.25451	  5.21648	 13.14492	  7.60414	  0.23462	 25.79884	703.66998	 21.10	
  8.491	 11.296	 25.28160	 16.71105	  4.88865	 11.79265	  8.83629	  0.21414	 25.79885	703.62000	 21.10	
  8.500	  0.000	 25.27719	 16.87967	  4.77152	 10.42202	 10.15809	  0.17008	 25.80067	703.69000	 21.20	
  8.491	-11.296	 25.28448	 16.75640	  4.86328	  9.06357	 11.55017	  0.11776	 25.80673	703.59003	 21.20	
  8.502	-22.507	 25.25039	 16.31771	  5.19519	  7.76735	 12.91213	  0.07695	 25.79256	703.59998	 21.20	
  8.494	-33.806	 25.24321	 15.60758	  5.77499	  6.64152	 14.17527	  0.04192	 25.81146	703.70001	 21.20	
  8.495	-44.961	 25.20721	 14.65005	  6.52547	  5.65270	 15.27734	 -0.00893	 25.80104	703.59998	 21.20	
  8.487	-56.277	 25.16639	 13.49449	  7.45212	  4.81481	 16.22178	 -0.06728	 25.78823	703.59003	 21.20	
  8.492	-67.425	 25.12849	 12.24042	  8.52596	  4.23496	 16.90661	 -0.09685	 25.81476	703.69000	 21.20	
  8.510	-78.780	 25.08298	 10.84473	  9.76796	  3.86193	 17.34007	 -0.13237	 25.80606	703.58002	 21.20	
  8.500	-90.000	 25.03707	  9.46605	 11.06231	  3.69780	 17.45796	 -0.16430	 25.79649	703.65002	 21.20	
  8.510	-101.220	 25.00031	  8.10208	 12.40899	  3.74768	 17.29484	 -0.18932	 25.80174	703.62000	 21.30	
  8.492	-112.575	 24.97145	  6.82100	 13.74241	  4.04537	 16.81155	 -0.18589	 25.80213	703.59998	 21.30	
  8.487	-123.723	 24.94807	  5.70114	 14.96751	  4.53364	 16.09390	 -0.18325	 25.80154	703.62000	 21.30	
  8.495	-135.039	 24.92788	  4.72552	 16.09082	  5.26594	 15.12774	 -0.17991	 25.80617	703.65997	 21.30	
  8.494	-146.194	 24.90864	  3.95840	 17.00376	  6.18309	 13.97174	 -0.19360	 25.80683	703.60999	 21.30	
  8.502	-157.493	 24.89272	  3.40029	 17.69312	  7.26540	 12.70437	 -0.18220	 25.81171	703.53998	 21.30	
  8.491	-168.704	 24.90275	  3.09122	 18.09601	  8.53304	 11.34771	 -0.16309	 25.81058	703.57001	 21.30	
  8.500	180.000	 24.88793	  2.94511	 18.24370	  9.85297	  9.96617	 -0.15287	 25.79976	703.58002	 21.30	
 10.200	180.000	 24.44971	  1.40633	 19.33317	  9.45065	  9.57463	 -0.39613	 25.80314	703.59998	 21.30	
 10.191	-170.497	 24.46511	  1.52656	 19.21659	  8.10976	 10.96796	 -0.39421	 25.82521	703.47998	 21.30	
 10.210	-161.034	 24.45899	  1.77912	 18.87039	  6.79837	 12.37947	 -0.40537	 25.81921	703.54999	 21.40	
 10.194	-151.526	 24.45982	  2.25682	 18.25804	  5.68217	 13.67770	 -0.41532	 25.80215	703.47998	 21.40	
 10.190	-142.105	 24.47762	  2.88556	 17.46503	  4.65828	 14.93297	 -0.42395	 25.80717	703.60999	 21.40	
 10.215	-132.646	 24.48705	  3.69949	 16.47752	  3.76003	 16.08168	 -0.39784	 25.80773	703.60999	 21.40	
 10.203	-123.092	 24.50970	  4.70396	 15.30874	  3.06137	 17.03591	 -0.40380	 25.79795	703.56000	 21.40	
 10.192	-113.678	 24.53835	  5.81837	 14.06833	  2.59418	 17.74750	 -0.41775	 25.79049	703.59003	 21.40	
 10.208	-104.249	 24.56890	  7.07521	 12.74023	  2.27574	 18.28033	 -0.40917	 25.78679	703.56000	 21.40	
 10.210	-94.801	 24.63694	  8.42592	 11.38375	  2.15511	 18.56700	 -0.39804	 25.81630	703.69000	 21.40	
 10.210	-85.199	 24.66967	  9.83225	 10.02059	  2.20215	 18.59226	 -0.36677	 25.82123	703.65997	 21.40	
 10.208	-75.751	 24.71578	 11.24216	  8.72746	  2.41701	 18.36190	 -0.35742	 25.82157	703.54999	 21.50	
 10.192	-66.322	 24.74308	 12.61302	  7.51449	  2.81805	 17.88112	 -0.34523	 25.80416	703.59998	 21.50	
 10.203	-56.908	 24.79292	 13.91602	  6.42751	  3.35508	 17.21549	 -0.33287	 25.81792	703.48999	 21.50	
 10.215	-47.354	 24.83478	 15.12311	  5.45022	  4.12043	 16.29088	 -0.28428	 25.81880	703.45001	 21.50	
 10.190	-37.895	 24.87529	 16.16389	  4.65621	  5.08106	 15.17736	 -0.23863	 25.82009	703.53998	 21.50	
 10.194	-28.474	 24.89828	 16.99148	  4.01941	  6.16543	 13.94915	 -0.19246	 25.81846	703.59998	 21.50	
 10.210	-18.966	 24.91652	 17.61319	  3.53167	  7.37092	 12.62933	 -0.16784	 25.81839	703.59998	 21.50	
 10.191	 -9.503	 24.94193	 17.95448	  3.27653	  8.69281	 11.23137	 -0.11908	 25.81879	703.46002	 21.50	
 10.200	  0.000	 24.94653	 18.08818	  3.18306	 10.08625	  9.82016	 -0.07244	 25.81728	703.53998	 21.50	
 10.191	  9.503	 24.94759	 17.92557	  3.26012	 11.45687	  8.48301	 -0.03010	 25.82018	703.51001	 21.50	
 10.210	 18.966	 24.93229	 17.52936	  3.51128	 12.86894	  7.18775	 -0.03138	 25.81586	703.53998	 21.60	
 10.194	 28.474	 24.93073	 16.88350	  3.96166	 14.20903	  6.00663	 -0.06046	 25.82960	703.53998	 21.60	
 10.190	 37.895	 24.91537	 16.01563	  4.61616	 15.39264	  4.98601	 -0.08420	 25.81517	703.97998	 21.60	
 10.215	 47.354	 24.90169	 14.94028	  5.43198	 16.49233	  4.04884	 -0.11731	 25.83480	703.51001	 21.60	
 10.203	 56.908	 24.88090	 13.71317	  6.45928	 17.37967	  3.34871	 -0.13495	 25.83571	703.71002	 21.60	
 10.192	 66.322	 24.83788	 12.37860	  7.54403	 18.04066	  2.79021	 -0.17479	 25.82461	703.65997	 21.60	
 10.208	 75.751	 24.79593	 10.97835	  8.75630	 18.49110	  2.40531	 -0.19887	 25.81891	703.60999	 21.60	
 10.210	 85.199	 24.75271	  9.56262	 10.04654	 18.68231	  2.21119	 -0.22352	 25.81327	703.62000	 21.60	
 10.210	 94.801	 24.71276	  8.14236	 11.40880	 18.63025	  2.16895	 -0.23981	 25.82631	703.65002	 21.60	
 10.208	104.249	 24.66195	  6.83591	 12.77639	 18.32516	  2.30043	 -0.28727	 25.82929	703.53998	 21.60	
 10.192	113.678	 24.60884	  5.63838	 14.09081	 17.75102	  2.67203	 -0.31617	 25.81753	703.58002	 21.70	
 10.203	123.092	 24.57765	  4.54375	 15.33366	 16.98745	  3.19206	 -0.34052	 25.82825	703.59998	 21.70	
 10.215	132.646	 24.54597	  3.54568	 16.49656	 15.99490	  3.90822	 -0.34023	 25.83327	703.59003	 21.70	
 10.190	142.105	 24.52770	  2.75828	 17.48419	 14.84345	  4.83788	 -0.33654	 25.83466	703.51001	 21.70	
 10.194	151.526	 24.50607	  2.12847	 18.27987	 13.60250	  5.85332	 -0.39325	 25.84030	703.64001	 21.70	
 10.210	161.034	 24.47246	  1.68927	 18.87997	 12.22969	  7.01845	 -0.40903	 25.81628	703.59003	 21.70	
 10.191	170.497	 24.46614	  1.46479	 19.21976	 10.82123	  8.28218	 -0.41925	 25.82115	703.59998	 21.70	
 11.899	171.783	 23.92561	 -0.06690	 20.24802	 10.36676	  7.82069	 -0.64562	 25.81661	703.62000	 21.70	
 11.890	163.610	 23.94722	  0.13100	 19.93609	 11.79390	  6.57069	 -0.66431	 25.83708	703.66998	 21.70	
 11.889	155.445	 23.95067	  0.47036	 19.42065	 13.16639	  5.37212	 -0.65857	 25.81819	703.62000	 21.80	
 11.909	147.299	 23.98796	  0.96467	 18.74222	 14.47782	  4.31172	 -0.60998	 25.84017	703.65002	 21.80	
 11.902	139.148	 23.99058	  1.62377	 17.85623	 15.71606	  3.29991	 -0.58513	 25.82463	703.64001	 21.80	
 11.894	130.867	 24.03511	  2.49323	 16.78985	 16.85856	  2.43640	 -0.59105	 25.83237	703.53998	 21.80	
 11.897	122.732	 24.06190	  3.47813	 15.61085	 17.80645	  1.75091	 -0.59666	 25.82113	703.51001	 21.80	
 11.903	114.597	 24.10588	  4.57340	 14.36120	 18.59145	  1.23222	 -0.58340	 25.83007	703.50000	 21.80	
 11.893	106.346	 24.14371	  5.76627	 13.02913	 19.19270	  0.85331	 -0.53509	 25.82293	703.59003	 21.80	
 11.892	 98.155	 24.19782	  7.06381	 11.64309	 19.57637	  0.65266	 -0.50040	 25.82872	703.58002	 21.80	
 11.900	 90.000	 24.25551	  8.41565	 10.29053	 19.75282	  0.62993	 -0.49862	 25.84027	703.58002	 21.80	
 11.892	 81.845	 24.29834	  9.81598	  8.97639	 19.69322	  0.70114	 -0.49675	 25.83292	703.54999	 21.80	
 11.893	 73.654	 24.34139	 11.24942	  7.68557	 19.42644	  0.94055	 -0.49274	 25.83047	703.59998	 21.80	
 11.903	 65.403	 24.38058	 12.66438	  6.48039	 18.95737	  1.32372	 -0.45229	 25.83716	703.59998	 21.90	
 11.897	 57.268	 24.41054	 14.00440	  5.39887	 18.27355	  1.87956	 -0.40587	 25.83738	703.63000	 21.90	
 11.894	 49.133	 24.39455	 15.21256	  4.45797	 17.40921	  2.48054	 -0.39123	 25.78773	703.57001	 21.90	
 11.902	 40.852	 24.42816	 16.37031	  3.58545	 16.36521	  3.34439	 -0.37033	 25.79728	703.65002	 21.90	
 11.909	 32.701	 24.45133	 17.32610	  2.90023	 15.16986	  4.37435	 -0.34217	 25.79076	703.71002	 21.90	
 11.889	 24.555	 24.47073	 18.08184	  2.38781	 13.92651	  5.46141	 -0.31370	 25.79039	703.71997	 21.90	
 11.890	 16.390	 24.48988	 18.66952	  1.99600	 12.55017	  6.68337	 -0.27725	 25.79193	703.69000	 21.90	
 11.899	  8.217	 24.49718	 19.02909	  1.75406	 11.14844	  7.95722	 -0.28855	 25.78745	703.59003	 21.90	
 11.900	  0.000	 24.51271	 19.17906	  1.68147	  9.75149	  9.31691	 -0.34328	 25.79548	703.57001	 22.00	
 11.899	 -8.217	 24.49599	 19.07544	  1.74360	  8.33578	 10.74578	 -0.40732	 25.78716	703.59998	 21.90	
 11.890	-16.390	 24.49577	 18.75615	  1.97642	  7.00727	 12.17491	 -0.43738	 25.79782	703.62000	 22.00	
 11.889	-24.555	 24.48868	 18.25014	  2.36865	  5.80499	 13.52534	 -0.45256	 25.81580	703.65002	 22.00	
 11.909	-32.701	 24.44591	 17.51705	  2.88775	  4.64997	 14.83097	 -0.47310	 25.79633	703.67999	 22.00	
 11.902	-40.852	 24.40849	 16.59517	  3.55741	  3.58545	 16.03889	 -0.52497	 25.79250	703.65997	 22.00	
 11.894	-49.133	 24.38035	 15.48954	  4.41393	  2.70078	 17.12090	 -0.55747	 25.79559	703.59003	 22.00	
 11.897	-57.268	 24.32622	 14.26197	  5.38044	  1.97605	 17.99371	 -0.57787	 25.78211	703.59998	 22.00	
 11.903	-65.403	 24.28284	 12.94387	  6.49746	  1.39179	 18.72221	 -0.59089	 25.78580	703.67999	 22.00	
 11.893	-73.654	 24.24317	 11.54091	  7.71354	  1.00400	 19.23829	 -0.57013	 25.78855	703.54999	 22.00	
 11.892	-81.845	 24.19749	 10.12829	  8.99240	  0.75504	 19.54317	 -0.56171	 25.78699	703.57001	 22.00	
 11.900	-90.000	 24.15792	  8.72780	 10.31109	  0.62743	 19.63640	 -0.57854	 25.79000	703.59998	 22.00	
 11.892	-98.155	 24.11282	  7.36771	 11.66792	  0.66402	 19.49834	 -0.60391	 25.79210	703.59998	 22.10	
 11.893	-106.346	 24.05986	  6.03156	 13.02977	  0.82957	 19.15022	 -0.61091	 25.79085	703.59998	 22.10	
 11.903	-114.597	 24.02787	  4.78785	 14.38467	  1.18845	 18.57806	 -0.60439	 25.79879	703.65997	 22.10	
 11.897	-122.732	 24.00851	  3.69923	 15.64390	  1.69611	 17.81914	 -0.58565	 25.80078	703.57001	 22.10	
 11.894	-130.867	 23.95730	  2.67919	 16.80737	  2.31156	 16.88129	 -0.60245	 25.79537	703.66998	 22.10	
 11.902	-139.148	 23.92018	  1.82048	 17.85631	  3.11776	 15.76804	 -0.62558	 25.78326	703.57001	 22.10	
 11.909	-147.299	 23.91004	  1.13205	 18.75414	  4.07781	 14.55294	 -0.65583	 25.78817	703.65997	 22.10	
 11.889	-155.445	 23.90179	  0.62126	 19.44527	  5.17091	 13.23414	 -0.66152	 25.79186	703.65002	 22.10	
 11.890	-163.610	 23.88014	  0.23427	 19.94710	  6.33407	 11.88236	 -0.64496	 25.78586	703.75000	 22.10	
 11.899	-171.783	 23.87397	  0.00217	 20.25874	  7.62608	 10.48171	 -0.65087	 25.79147	703.63000	 22.10	
 11.900	180.000	 23.87013	 -0.09146	 20.36523	  8.98282	  9.09088	 -0.65953	 25.78661	703.70001	 22.10	
 13.600	180.000	 23.24579	 -1.59410	 21.30639	  8.42516	  8.59434	 -0.83710	 25.79402	703.60999	 22.20	
 13.608	-172.853	 23.24830	 -1.50643	 21.20916	  7.09847	  9.97561	 -0.80999	 25.79175	703.60999	 22.20	
 13.611	-165.583	 23.25419	 -1.33501	 20.95729	  5.78209	 11.41260	 -0.80716	 25.79794	703.69000	 22.20	
 13.601	-158.353	 23.25597	 -1.00202	 20.48447	  4.60309	 12.77203	 -0.78513	 25.78630	703.62000	 22.20	
 13.609	-151.210	 23.28093	 -0.55322	 19.86082	  3.49310	 14.12385	 -0.78332	 25.79613	703.63000	 22.20	
 13.611	-143.999	 23.30318	  0.04257	 19.06278	  2.47700	 15.43162	 -0.75230	 25.79182	703.59998	 22.20	
 13.601	-136.825	 23.32852	  0.77481	 18.11561	  1.59907	 16.59457	 -0.73174	 25.79536	703.70001	 22.20	
 13.596	-129.640	 23.36300	  1.65148	 17.04843	  0.86293	 17.65729	 -0.68552	 25.79075	703.65997	 22.20	
