FileType=PCF
NHL=14
Date=03/14/19	15:52:33
Facility=APL
Serial=16071-2
Customer=NASA
NP=6
Mach=0.450000
Calibration=1:1
CalPts=490
TstPts=95
PortNumbering=AP Standard
Units=Torr C m/s kg/m^3 deg mm 
Theta[deg]	Phi[deg]	P1[Torr]	P2[Torr]	P3[Torr]	P4[Torr]	P5[Torr]	P6[Torr]	Pt[Torr]	Ps[Abs,Torr]	Ts[C]	
  0.000	  0.000	 91.57542	 37.61010	 43.86969	 40.53434	 39.70788	  2.11208	 91.52673	707.07001	 33.20	
  1.691	128.401	 91.52112	 34.42114	 46.70720	 43.97885	 35.92329	  2.04866	 91.50683	707.10999	 33.40	
  1.692	 77.194	 91.62531	 38.50711	 42.76730	 45.16579	 35.08395	  2.17717	 91.58227	707.09003	 33.50	
  1.699	 26.182	 91.72294	 41.96304	 39.59123	 42.56840	 37.61242	  2.24611	 91.63023	707.09003	 33.60	
  1.699	-26.182	 91.75119	 42.07833	 39.53998	 38.61156	 41.82597	  2.16447	 91.67558	707.07001	 33.80	
  1.692	-77.194	 91.74773	 38.78834	 42.71217	 35.94891	 44.45122	  2.02934	 91.68968	707.09998	 33.90	
  1.691	-128.401	 91.72413	 34.69912	 46.72800	 36.71891	 43.44337	  1.93939	 91.71348	707.13000	 34.00	
  1.700	180.000	 91.70896	 32.80692	 48.58961	 40.39005	 39.59943	  1.96859	 91.71633	707.26001	 34.10	
  3.400	180.000	 91.45026	 27.13709	 53.11012	 39.81573	 39.32395	  1.64087	 91.77050	707.20001	 34.30	
  3.388	-152.325	 91.48895	 28.34041	 51.93980	 35.42205	 43.86776	  1.58824	 91.78245	707.13000	 34.40	
  3.397	-124.529	 91.58147	 31.50037	 48.88430	 32.21621	 47.43624	  1.59318	 91.81670	707.15002	 34.50	
  3.399	-96.763	 91.63953	 36.36250	 44.54936	 30.79860	 49.24989	  1.66366	 91.77209	707.12000	 34.60	
  3.394	-69.283	 91.72409	 40.97224	 40.01215	 31.51339	 48.66168	  1.76055	 91.75131	707.08002	 34.70	
  3.400	-41.398	 91.83807	 44.94088	 36.27849	 34.28368	 45.90854	  1.94351	 91.78390	707.07001	 34.80	
  3.401	-14.021	 91.88000	 47.15324	 34.25653	 38.37594	 41.78157	  2.08801	 91.82343	707.09003	 34.90	
  3.401	 14.021	 91.89936	 47.09652	 34.32504	 42.95723	 37.10401	  2.15845	 91.82059	707.09998	 35.00	
  3.400	 41.398	 91.88390	 44.73372	 36.42641	 47.05416	 33.15038	  2.18217	 91.83546	707.09003	 35.10	
  3.394	 69.283	 91.86023	 40.67089	 40.22113	 49.62869	 30.69220	  2.13305	 91.87946	707.17999	 35.20	
  3.399	 96.763	 91.80715	 35.96963	 44.78745	 50.00633	 29.92168	  2.02120	 91.91920	707.09003	 35.30	
  3.397	124.529	 91.65009	 31.62975	 49.07957	 48.09046	 31.66839	  1.86896	 91.87508	706.96002	 35.40	
  3.388	152.325	 91.67209	 28.24338	 52.19028	 44.36231	 35.06562	  1.73366	 91.96175	706.96997	 35.50	
  5.099	161.165	 91.03915	 22.85244	 56.82849	 43.71723	 34.20222	  1.21395	 91.93948	707.13000	 35.60	
  5.109	142.013	 91.13054	 24.81664	 54.60011	 48.35363	 30.09916	  1.36099	 91.97710	707.09003	 35.70	
  5.095	123.033	 91.24528	 28.28043	 51.00840	 51.98317	 26.84259	  1.51816	 91.98515	707.14001	 35.80	
  5.105	104.191	 91.36146	 32.68222	 46.64009	 54.14777	 25.18319	  1.67527	 91.95750	707.14001	 35.90	
  5.093	 85.207	 91.52650	 37.67704	 41.95377	 54.70308	 24.95219	  1.78705	 91.97969	707.10999	 35.90	
  5.104	 66.290	 91.65678	 42.49762	 37.43373	 53.74696	 25.95396	  1.89475	 91.99548	707.03003	 36.00	
  5.094	 47.331	 91.78802	 46.87976	 33.54712	 51.21261	 28.43718	  2.00468	 92.03108	707.09003	 36.10	
  5.089	 28.397	 91.86311	 50.12644	 30.84897	 47.35619	 32.02382	  2.03650	 92.05766	707.00000	 36.20	
  5.096	  9.576	 91.90156	 51.93545	 29.39012	 42.68314	 36.25220	  1.98519	 92.05655	707.03998	 36.30	
  5.096	 -9.576	 91.88332	 52.08833	 29.20412	 38.06874	 41.35324	  1.88014	 92.02132	707.07001	 36.40	
  5.089	-28.397	 91.92899	 50.53312	 30.54771	 33.59824	 46.04972	  1.73037	 92.11352	707.04999	 36.50	
  5.094	-47.331	 91.83186	 47.38269	 33.24845	 29.80725	 50.02213	  1.56107	 92.08110	707.09998	 36.50	
  5.104	-66.290	 91.74639	 43.23180	 37.26353	 27.11616	 52.85695	  1.41843	 92.09875	707.02002	 36.60	
  5.093	-85.207	 91.63046	 38.54629	 41.85698	 25.57971	 53.98096	  1.26834	 92.09563	707.06000	 36.70	
  5.105	-104.191	 91.52211	 33.73972	 46.61544	 25.70775	 53.53230	  1.18142	 92.11806	706.90997	 36.80	
  5.095	-123.033	 91.46836	 29.39119	 50.98204	 27.40586	 51.46651	  1.14379	 92.16495	706.96997	 36.90	
  5.109	-142.013	 91.37178	 25.35564	 54.54307	 30.31719	 47.96037	  1.10813	 92.17513	707.03003	 36.90	
  5.099	-161.165	 91.26668	 23.09916	 56.81459	 34.33567	 43.58729	  1.14051	 92.10519	707.00000	 37.00	
  5.100	180.000	 91.24773	 22.35307	 57.66999	 39.27617	 38.86137	  1.18342	 92.13008	707.00000	 37.10	
  6.800	180.000	 90.39997	 17.04813	 61.89987	 38.41547	 38.11984	  0.59779	 92.18895	706.94000	 37.10	
  6.796	-166.229	 90.41561	 17.78991	 61.27329	 33.86885	 42.80045	  0.56800	 92.16872	706.97998	 37.20	
  6.808	-152.311	 90.42007	 19.62234	 59.59243	 29.62758	 47.22134	  0.50680	 92.14958	707.04999	 37.30	
  6.795	-138.383	 90.55521	 22.11440	 56.85220	 25.81734	 51.25687	  0.50973	 92.17201	706.98999	 37.30	
  6.792	-124.591	 90.68008	 25.42002	 53.28434	 23.08782	 54.59267	  0.52353	 92.19492	706.96997	 37.40	
  6.787	-110.754	 90.84609	 29.47807	 49.15211	 21.26253	 56.99616	  0.52041	 92.23795	706.95001	 37.40	
  6.800	-96.985	 90.88879	 34.32093	 44.65732	 20.18275	 58.27560	  0.61117	 92.18884	706.96002	 37.50	
  6.800	-83.015	 91.07824	 39.08749	 40.02000	 20.30415	 58.39020	  0.72520	 92.22755	706.92999	 37.60	
  6.787	-69.246	 91.23775	 43.66734	 35.59561	 21.49694	 57.25538	  0.86094	 92.23952	706.92999	 37.60	
  6.792	-55.409	 91.35016	 47.97853	 31.63957	 23.73801	 54.96634	  0.96095	 92.24622	707.01001	 37.70	
  6.795	-41.617	 91.41624	 51.73528	 28.45248	 26.79692	 51.65873	  1.14141	 92.21257	706.97998	 37.70	
  6.808	-27.689	 91.47484	 54.56865	 25.97196	 30.57294	 47.47898	  1.29654	 92.19616	707.08002	 37.80	
  6.796	-13.771	 91.53461	 56.26448	 24.57429	 34.94678	 42.98405	  1.47735	 92.23888	707.08002	 37.80	
  6.800	  0.000	 91.55225	 56.83438	 23.61647	 39.94678	 38.26411	  1.60323	 92.24248	707.03003	 37.90	
  6.796	 13.771	 91.55014	 56.15466	 23.99845	 44.41731	 33.67679	  1.71297	 92.27922	707.01001	 38.00	
  6.808	 27.689	 91.48576	 54.27160	 25.52850	 49.13681	 29.30789	  1.77441	 92.27239	707.00000	 38.00	
  6.795	 41.617	 91.47207	 51.32720	 27.98520	 53.11203	 25.69964	  1.76324	 92.30849	706.98999	 38.10	
  6.792	 55.409	 91.38141	 47.44245	 31.21439	 56.16767	 22.93672	  1.71612	 92.30007	706.95001	 38.10	
  6.787	 69.246	 91.27866	 42.96384	 35.22289	 58.25566	 20.97946	  1.65686	 92.30464	707.00000	 38.20	
  6.800	 83.015	 91.18581	 38.30511	 39.62920	 59.27159	 19.85875	  1.54287	 92.34955	707.02002	 38.30	
  6.800	 96.985	 91.07690	 33.54295	 44.26316	 59.08615	 19.86872	  1.42822	 92.35583	707.00000	 38.30	
  6.787	110.754	 90.94229	 28.76118	 48.96186	 57.67191	 21.02358	  1.31784	 92.34451	706.98999	 38.40	
  6.792	124.591	 90.81716	 24.75293	 53.35647	 55.27481	 22.92222	  1.16223	 92.35889	707.07001	 38.40	
  6.795	138.383	 90.72653	 21.73458	 56.96336	 51.89917	 25.63748	  0.87164	 92.38964	707.09003	 38.40	
  6.808	152.311	 90.61560	 19.25886	 59.80199	 47.57001	 29.25796	  0.89504	 92.34786	707.01001	 38.50	
  6.796	166.229	 90.60546	 17.86750	 61.43942	 43.05466	 33.64866	  0.79958	 92.36217	706.94000	 38.50	
  8.491	168.704	 89.34132	 12.59439	 65.48920	 42.00566	 32.43889	  0.10544	 92.34280	706.97998	 38.60	
  8.502	157.493	 89.37913	 13.69696	 64.13945	 46.69537	 27.88114	  0.19686	 92.34308	706.96997	 38.60	
  8.494	146.194	 89.52557	 15.67670	 61.77088	 51.30099	 24.07384	  0.23826	 92.41562	706.96002	 38.70	
  8.495	135.039	 89.59550	 18.29104	 58.57360	 55.29358	 20.80770	  0.12150	 92.39599	707.02002	 38.70	
  8.487	123.723	 89.71296	 21.65085	 54.73454	 58.67781	 18.06420	  0.55587	 92.40646	706.94000	 38.80	
  8.492	112.575	 89.82866	 25.30736	 50.59171	 61.17852	 16.11826	  0.55900	 92.41110	707.00000	 38.80	
  8.510	101.220	 89.93872	 29.85995	 45.84087	 62.89952	 14.76175	  0.73741	 92.36400	707.08002	 38.90	
  8.500	 90.000	 90.12733	 34.66522	 41.18969	 63.55973	 14.38243	  0.55838	 92.42345	707.02002	 38.90	
  8.510	 78.780	 90.23339	 39.67063	 36.53577	 63.29445	 14.71911	  0.94823	 92.37561	707.01001	 38.90	
  8.492	 67.425	 90.38756	 44.53455	 32.13793	 61.98558	 15.98042	  1.06720	 92.43900	707.04999	 39.00	
  8.487	 56.277	 90.45897	 48.98874	 28.34719	 59.80374	 17.88996	  1.08538	 92.38761	707.04999	 39.00	
  8.495	 44.961	 90.55585	 53.09086	 25.03407	 56.75337	 20.65863	  1.08678	 92.35894	707.07001	 39.10	
  8.494	 33.806	 90.68032	 56.46280	 22.29740	 53.09932	 24.10497	  1.25586	 92.40944	707.03003	 39.10	
  8.502	 22.507	 90.73275	 59.05571	 20.28796	 48.71830	 27.92351	  1.24726	 92.40498	706.98999	 39.10	
  8.491	 11.296	 90.76920	 60.64699	 19.06982	 43.66328	 32.45429	  1.20204	 92.35051	707.04999	 39.10	
  8.500	  0.000	 90.88342	 61.30667	 18.70631	 39.28609	 37.25357	  1.07877	 92.44635	707.04999	 39.20	
  8.491	-11.296	 90.87886	 60.82458	 19.10916	 34.56680	 42.32761	  0.91819	 92.44041	707.07001	 39.20	
  8.502	-22.507	 90.79454	 59.36987	 20.27033	 29.97207	 47.02078	  0.70528	 92.37064	707.02002	 39.20	
  8.494	-33.806	 90.80088	 56.98210	 22.39120	 26.00157	 51.42381	  0.48811	 92.42328	706.95001	 39.30	
  8.495	-44.961	 90.70510	 53.73962	 25.24234	 22.04793	 55.27065	  0.27436	 92.38827	706.96997	 39.30	
  8.487	-56.277	 90.60562	 49.78961	 28.55482	 19.03551	 58.55668	  0.21960	 92.43642	706.94000	 39.30	
  8.492	-67.425	 90.54799	 45.43367	 32.27650	 16.94264	 60.94983	  0.13932	 92.49578	707.17999	 39.40	
  8.510	-78.780	 90.32690	 40.74984	 36.71179	 15.62627	 62.35254	 -0.09138	 92.43076	707.00000	 39.40	
  8.500	-90.000	 90.20496	 36.02592	 41.36116	 15.12688	 62.77348	 -0.04928	 92.43912	707.06000	 39.40	
  8.510	-101.220	 90.02256	 31.24857	 46.04715	 15.34413	 62.21198	 -0.13693	 92.40724	707.14001	 39.50	
  8.492	-112.575	 89.94839	 26.44037	 50.64784	 16.51418	 60.63727	 -0.15369	 92.44199	707.02002	 39.50	
  8.487	-123.723	 89.81778	 22.47484	 54.83318	 18.73678	 58.19586	 -0.16977	 92.44041	707.06000	 39.50	
  8.495	-135.039	 89.69598	 19.15936	 58.67584	 21.29545	 54.91133	 -0.14617	 92.45358	707.08002	 39.50	
  8.494	-146.194	 89.60935	 16.44228	 61.74349	 24.19668	 50.86115	 -0.12388	 92.45139	707.08002	 39.60	
  8.502	-157.493	 89.54377	 14.28553	 64.11186	 28.07090	 46.55063	 -0.07468	 92.44244	707.19000	 39.60	
  8.491	-168.704	 89.49440	 13.01206	 65.50162	 32.50460	 41.87076	 -0.04089	 92.46142	707.13000	 39.60	
  8.500	180.000	 89.47608	 12.48097	 66.05556	 37.18300	 37.11176	  0.02459	 92.47552	707.13000	 39.60	
 10.200	180.000	 87.98158	  6.73820	 69.71728	 35.86669	 35.82404	 -0.80019	 92.47079	707.13000	 39.70	
 10.191	-170.497	 87.99889	  7.20459	 69.29236	 31.18605	 40.64136	 -1.02559	 92.46867	707.10999	 39.70	
 10.210	-161.034	 88.07490	  8.32009	 68.14219	 26.62273	 45.47119	 -1.02532	 92.49159	707.16998	 39.70	
 10.194	-151.526	 88.15733	 10.08176	 66.17076	 22.79025	 49.93583	 -1.01749	 92.48832	707.10999	 39.70	
 10.190	-142.105	 88.25013	 12.48572	 63.40804	 19.39681	 54.44923	 -0.91714	 92.49441	707.09998	 39.70	
 10.215	-132.646	 88.32243	 15.86392	 60.02080	 16.15524	 58.34550	 -0.94693	 92.52127	707.09003	 39.70	
 10.203	-123.092	 88.42768	 19.39980	 55.96076	 13.31318	 61.53978	 -1.19190	 92.48061	707.08002	 39.80	
 10.192	-113.678	 88.55484	 23.40499	 51.74350	 11.61694	 64.00853	 -0.99251	 92.47565	707.15002	 39.80	
 10.208	-104.249	 88.71487	 27.65327	 47.21239	 10.51657	 65.80144	 -1.16145	 92.49222	707.14001	 39.80	
 10.210	-94.801	 88.81188	 32.55759	 42.44371	  9.85240	 66.66347	 -0.89222	 92.44604	707.15002	 39.80	
 10.210	-85.199	 88.97920	 37.44271	 37.72206	 10.08224	 66.73040	 -0.82897	 92.46990	707.21997	 39.90	
 10.208	-75.751	 89.14070	 42.24371	 33.14898	 10.89822	 65.96806	 -1.07258	 92.49845	707.09998	 39.90	
 10.192	-66.322	 89.23226	 46.78341	 28.98408	 12.28013	 64.36379	 -0.79320	 92.46576	707.13000	 39.90	
 10.203	-56.908	 89.38895	 51.37021	 25.20264	 14.32821	 61.90492	 -0.76118	 92.49822	707.21997	 39.90	
 10.215	-47.354	 89.57314	 55.48268	 21.83817	 17.06068	 58.78277	 -0.53108	 92.53680	707.15002	 40.00	
 10.190	-37.895	 89.70939	 58.92233	 19.04906	 20.40034	 54.99786	 -0.84494	 92.53570	707.10999	 40.00	
 10.194	-28.474	 89.74878	 61.73173	 16.65668	 24.36734	 50.58810	 -0.14334	 92.49538	707.09003	 40.00	
 10.210	-18.966	 89.79752	 63.86300	 14.80608	 28.64824	 45.97345	  0.00363	 92.51905	707.15002	 40.00	
 10.191	 -9.503	 89.85324	 64.92927	 13.49941	 33.32856	 41.16499	 -0.19268	 92.52760	707.15002	 40.00	
 10.200	  0.000	 89.83229	 65.32590	 13.12977	 38.57754	 36.24415	  0.32664	 92.53999	707.20001	 40.00	
 10.191	  9.503	 89.75171	 64.78162	 13.51988	 43.24309	 31.26038	  0.41988	 92.50944	707.17999	 40.10	
 10.210	 18.966	 89.69675	 63.46935	 14.44551	 47.80385	 26.70846	  0.42407	 92.55328	707.06000	 40.10	
 10.194	 28.474	 89.59965	 61.10068	 16.13808	 52.62470	 22.70442	  0.51912	 92.51295	707.10999	 40.10	
 10.190	 37.895	 89.58385	 58.17246	 18.49836	 56.61708	 19.14477	  0.52678	 92.53939	707.10999	 40.20	
 10.215	 47.354	 89.39457	 54.52921	 21.27699	 60.23665	 15.83477	 -0.29393	 92.48066	707.13000	 40.20	
 10.203	 56.908	 89.28844	 50.24438	 24.70375	 63.22691	 12.87535	  0.08683	 92.49763	707.08002	 40.20	
 10.192	 66.322	 89.17221	 45.70586	 28.51649	 65.57502	 10.75711	  0.33700	 92.52671	707.12000	 40.20	
 10.208	 75.751	 89.05547	 40.97672	 32.77219	 67.13921	  9.50526	  0.20104	 92.54806	707.04999	 40.30	
 10.210	 85.199	 88.89632	 36.16101	 37.35343	 67.73608	  8.81814	 -0.25835	 92.50326	707.21002	 40.30	
 10.210	 94.801	 88.73749	 31.24507	 42.38626	 67.55972	  8.63712	 -0.63699	 92.53265	707.16998	 40.30	
 10.208	104.249	 88.53985	 26.18286	 47.15639	 66.47642	  9.30655	 -0.13790	 92.50889	707.09998	 40.30	
 10.192	113.678	 88.39966	 22.07261	 51.71440	 64.53387	 10.61028	 -0.76870	 92.47355	707.15997	 40.30	
 10.203	123.092	 88.29343	 18.12729	 56.04816	 61.94804	 13.13703	 -0.23423	 92.49805	707.10999	 40.30	
 10.215	132.646	 88.15083	 14.21556	 59.95613	 58.63369	 15.79563	 -0.42191	 92.45866	707.19000	 40.30	
 10.190	142.105	 88.11948	 11.42789	 63.40750	 54.71858	 19.00611	 -1.20994	 92.47713	707.13000	 40.40	
 10.194	151.526	 88.06640	  9.30727	 66.16578	 50.19205	 22.55751	 -1.34678	 92.53691	707.14001	 40.40	
 10.210	161.034	 87.98613	  7.78846	 68.21942	 45.67797	 26.51172	 -1.34202	 92.50040	707.21002	 40.40	
 10.191	170.497	 88.03613	  6.96267	 69.39956	 40.91516	 31.07090	 -1.00534	 92.54985	707.15997	 40.40	
 11.899	171.783	 86.12070	  1.50661	 72.95547	 39.26461	 29.47648	 -2.29591	 92.48190	707.14001	 40.40	
 11.890	163.610	 86.14610	  2.33075	 71.88133	 44.15484	 25.17841	 -2.39108	 92.46682	707.21997	 40.50	
 11.889	155.445	 86.20932	  3.50614	 70.13575	 48.86369	 21.03023	 -2.33385	 92.51054	707.07001	 40.50	
 11.909	147.299	 86.24120	  5.22498	 67.75811	 53.43203	 17.21663	 -2.22737	 92.52206	707.17999	 40.50	
 11.902	139.148	 86.30012	  7.57029	 64.69289	 57.74478	 13.75704	 -2.04505	 92.48252	707.09003	 40.50	
 11.894	130.867	 86.39138	 10.53592	 61.02429	 61.53866	 10.40815	 -1.97190	 92.47778	707.14001	 40.50	
 11.897	122.732	 86.55107	 14.06585	 56.98828	 64.84556	  7.64181	 -1.98840	 92.53835	707.07001	 40.60	
 11.903	114.597	 86.63939	 18.30811	 52.70545	 67.47324	  5.64087	 -1.91109	 92.51317	707.14001	 40.60	
 11.893	106.346	 86.83739	 22.64361	 48.12410	 69.56223	  4.27620	 -1.83671	 92.54378	707.21002	 40.60	
 11.892	 98.155	 87.00497	 27.09516	 43.27784	 70.85190	  3.55257	 -1.63735	 92.54609	707.15997	 40.60	
 11.900	 90.000	 87.16333	 31.92315	 38.54633	 71.38800	  3.43273	 -1.62181	 92.52345	707.20001	 40.70	
 11.892	 81.845	 87.36819	 36.96777	 34.02483	 71.22236	  3.86981	 -1.45159	 92.57026	707.15997	 40.70	
 11.893	 73.654	 87.45609	 41.92794	 29.37333	 69.95690	  4.65689	 -1.57247	 92.51751	707.14001	 40.70	
 11.903	 65.403	 87.60775	 46.70070	 24.95615	 68.59267	  6.01360	 -1.55008	 92.53539	707.09003	 40.80	
 11.897	 57.268	 87.76141	 51.30400	 21.16350	 66.35461	  7.91762	 -1.37034	 92.55492	707.12000	 40.80	
 11.894	 49.133	 87.82784	 55.64254	 17.74153	 63.42964	 10.34552	 -1.47733	 92.52831	707.07001	 40.80	
 11.902	 40.852	 87.97545	 59.52203	 14.66405	 59.90366	 13.39661	 -0.44416	 92.55286	707.14001	 40.80	
 11.909	 32.701	 88.07311	 62.77977	 12.22657	 56.06911	 17.27424	 -0.78736	 92.53845	707.15002	 40.80	
 11.889	 24.555	 88.14832	 65.44239	 10.30047	 51.76988	 21.00777	 -0.31327	 92.57251	707.07001	 40.80	
 11.890	 16.390	 88.23577	 67.43049	  8.99107	 46.71310	 25.34183	 -1.08320	 92.55177	707.04999	 40.90	
 11.899	  8.217	 88.29993	 68.72983	  8.13786	 42.15355	 29.90858	 -0.45310	 92.54107	707.21002	 40.90	
 11.900	  0.000	 88.38490	 69.21676	  7.91644	 37.43283	 34.93474	 -0.54859	 92.55647	707.20001	 40.90	
 11.899	 -8.217	 88.41415	 68.91162	  8.25748	 32.55216	 39.90525	 -1.35968	 92.57257	707.26001	 40.90	
 11.890	-16.390	 88.39066	 67.83494	  9.11986	 27.88470	 44.68931	 -0.92356	 92.54415	707.27002	 40.90	
 11.889	-24.555	 88.36868	 66.02869	 10.59852	 23.08120	 49.25159	 -1.56359	 92.54977	707.21997	 40.90	
 11.909	-32.701	 88.29078	 63.67028	 12.43095	 19.20862	 53.99441	 -1.36034	 92.55111	707.14001	 40.90	
 11.902	-40.852	 88.17599	 60.53912	 14.85384	 15.47653	 58.12008	 -1.78806	 92.53691	707.16998	 40.90	
 11.894	-49.133	 88.13094	 56.88945	 17.91092	 12.31215	 61.82454	 -1.83980	 92.57869	707.29999	 40.90	
 11.897	-57.268	 87.94227	 52.67966	 21.31385	  9.69795	 64.94000	 -1.92280	 92.55116	707.19000	 40.90	
 11.903	-65.403	 87.83246	 48.00298	 25.10502	  7.59488	 67.42145	 -1.95809	 92.59306	707.19000	 41.00	
 11.893	-73.654	 87.61322	 43.37454	 29.14354	  6.07639	 69.20991	 -1.86459	 92.52419	707.14001	 40.90	
 11.892	-81.845	 87.46529	 38.51193	 33.62896	  5.04621	 70.36169	 -1.93853	 92.54509	707.13000	 41.00	
 11.900	-90.000	 87.27501	 33.64561	 38.15701	  4.39268	 70.67866	 -1.80649	 92.50482	707.16998	 41.00	
 11.892	-98.155	 87.16053	 28.82562	 43.35697	  4.59721	 70.23486	 -2.02726	 92.55282	707.09998	 41.00	
 11.893	-106.346	 86.98425	 24.22357	 48.13160	  5.39222	 68.98731	 -2.06329	 92.50778	707.09998	 41.00	
 11.903	-114.597	 86.85976	 19.84421	 52.70535	  6.58898	 67.02188	 -2.01087	 92.51423	707.04999	 41.00	
 11.897	-122.732	 86.76131	 15.96342	 57.08487	  8.42749	 64.49578	 -2.00282	 92.51291	707.14001	 41.00	
 11.894	-130.867	 86.62672	 12.43690	 61.13640	 10.69626	 61.33645	 -2.05445	 92.53799	707.14001	 41.00	
 11.902	-139.148	 86.49088	  9.21028	 64.79295	 13.67842	 57.62892	 -2.14739	 92.55462	707.03998	 41.00	
 11.909	-147.299	 86.42239	  6.24689	 67.78807	 17.36831	 53.33908	 -2.22515	 92.53397	707.03998	 41.00	
 11.889	-155.445	 86.33945	  4.27357	 70.12838	 21.14984	 48.68681	 -2.26733	 92.49595	707.12000	 41.00	
 11.890	-163.610	 86.29949	  2.78373	 71.85394	 25.09465	 44.14323	 -2.22892	 92.51050	707.08002	 41.10	
 11.899	-171.783	 86.26755	  1.87394	 72.90639	 29.55727	 39.29994	 -2.26722	 92.53845	706.90997	 41.10	
 11.900	180.000	 86.20428	  1.53583	 73.23733	 34.31669	 34.36683	 -2.17075	 92.49659	707.15002	 41.10	
 13.600	180.000	 84.05848	 -3.77722	 76.53119	 32.47235	 32.66487	 -2.88103	 92.54259	707.03003	 41.10	
 13.608	-172.853	 84.10378	 -3.57765	 76.28632	 27.74880	 37.50664	 -2.79491	 92.53390	707.00000	 41.10	
 13.611	-165.583	 84.12127	 -2.77100	 75.35550	 23.37727	 42.52689	 -2.76633	 92.51971	707.02002	 41.10	
 13.601	-158.353	 84.21146	 -1.40186	 73.81598	 19.16724	 47.23592	 -2.74487	 92.54054	707.08002	 41.10	
 13.609	-151.210	 84.22124	  0.28002	 71.60719	 15.32547	 51.72013	 -2.71150	 92.47742	707.13000	 41.20	
 13.611	-143.999	 84.32119	  2.55027	 68.88051	 11.50716	 56.42241	 -2.59242	 92.48299	707.09003	 41.20	
 13.601	-136.825	 84.51734	  5.32648	 65.70397	  8.31333	 60.49790	 -2.44524	 92.55371	707.04999	 41.20	
 13.596	-129.640	 84.61752	  8.47783	 61.90315	  5.60976	 64.09276	 -2.34999	 92.56073	707.14001	 41.10	
