FileType=PCF
NHL=14
Date=03/15/19	10:03:51
Facility=APL
Serial=16071-2
Customer=NASA
NP=6
Mach=0.080000
Calibration=1:1
CalPts=490
TstPts=95
PortNumbering=AP Standard
Units=Torr C m/s kg/m^3 deg mm 
Theta[deg]	Phi[deg]	P1[Torr]	P2[Torr]	P3[Torr]	P4[Torr]	P5[Torr]	P6[Torr]	Pt[Torr]	Ps[Abs,Torr]	Ts[C]	
  0.000	  0.000	  3.22576	  1.33710	  1.53060	  1.40552	  1.43292	  0.07558	  3.22199	704.20001	 22.10	
  1.691	128.401	  3.22367	  1.23343	  1.60477	  1.49787	  1.30973	  0.06902	  3.22179	703.62000	 22.10	
  1.692	 77.194	  3.22796	  1.35457	  1.49760	  1.53543	  1.29437	  0.07545	  3.22481	704.26001	 22.10	
  1.699	 26.182	  3.22902	  1.46298	  1.40072	  1.45435	  1.37411	  0.07857	  3.22413	703.70001	 22.10	
  1.699	-26.182	  3.22776	  1.45436	  1.39887	  1.34123	  1.48167	  0.07123	  3.22148	703.48999	 22.10	
  1.692	-77.194	  3.22667	  1.35781	  1.48332	  1.25887	  1.56100	  0.06638	  3.22488	703.39001	 22.00	
  1.691	-128.401	  3.22520	  1.23178	  1.60722	  1.27164	  1.53218	  0.06067	  3.22419	703.47998	 22.00	
  1.700	180.000	  3.22600	  1.17573	  1.66900	  1.38149	  1.41245	  0.06330	  3.22509	703.40997	 22.00	
  3.400	180.000	  3.21559	  0.99127	  1.83556	  1.35314	  1.39470	  0.04781	  3.22449	703.40002	 22.00	
  3.388	-152.325	  3.21800	  1.02659	  1.79562	  1.20771	  1.54932	  0.04411	  3.22676	703.52002	 22.00	
  3.397	-124.529	  3.21881	  1.12445	  1.68521	  1.10605	  1.67624	  0.04467	  3.22641	703.46997	 22.00	
  3.399	-96.763	  3.21682	  1.26181	  1.53726	  1.06545	  1.73555	  0.04665	  3.22108	703.46997	 22.00	
  3.394	-69.283	  3.22272	  1.41315	  1.39373	  1.09238	  1.71796	  0.05244	  3.22334	703.40997	 22.00	
  3.400	-41.398	  3.22372	  1.54843	  1.28193	  1.18005	  1.62249	  0.05980	  3.22273	703.40997	 22.00	
  3.401	-14.021	  3.22630	  1.62731	  1.22207	  1.31183	  1.48187	  0.06728	  3.22421	703.39001	 22.00	
  3.401	 14.021	  3.22843	  1.62494	  1.22785	  1.46252	  1.33677	  0.07258	  3.22533	703.38000	 22.00	
  3.400	 41.398	  3.22704	  1.54747	  1.28532	  1.59105	  1.21676	  0.07491	  3.22299	703.39001	 22.00	
  3.394	 69.283	  3.22372	  1.40921	  1.40551	  1.68267	  1.13472	  0.07263	  3.22096	703.40002	 22.00	
  3.399	 96.763	  3.21945	  1.25741	  1.54329	  1.69922	  1.10808	  0.06667	  3.22011	703.47998	 22.00	
  3.397	124.529	  3.21659	  1.11556	  1.68674	  1.63148	  1.15152	  0.05816	  3.22082	703.51001	 22.00	
  3.388	152.325	  3.21715	  1.02384	  1.79614	  1.50321	  1.25988	  0.05236	  3.22204	703.48999	 22.00	
  5.099	161.165	  3.19470	  0.82516	  1.96922	  1.48526	  1.22315	  0.03449	  3.22092	703.40002	 22.00	
  5.109	142.013	  3.19793	  0.89256	  1.88826	  1.64257	  1.08687	  0.03887	  3.22090	703.52002	 22.00	
  5.095	123.033	  3.20166	  1.00146	  1.76046	  1.76785	  0.98713	  0.04437	  3.22141	703.41998	 22.00	
  5.105	104.191	  3.20772	  1.14645	  1.60846	  1.84768	  0.93280	  0.05055	  3.22419	703.46002	 22.00	
  5.093	 85.207	  3.21259	  1.30772	  1.44783	  1.87048	  0.92398	  0.05523	  3.22358	703.38000	 22.00	
  5.104	 66.290	  3.21289	  1.46925	  1.29972	  1.83112	  0.96057	  0.06106	  3.22098	703.51001	 22.00	
  5.094	 47.331	  3.21652	  1.62058	  1.17302	  1.73767	  1.04477	  0.06627	  3.22259	703.34998	 22.00	
  5.089	 28.397	  3.21723	  1.73117	  1.08746	  1.60210	  1.16660	  0.06454	  3.22138	703.47998	 22.00	
  5.096	  9.576	  3.21646	  1.79084	  1.04003	  1.44554	  1.30840	  0.06150	  3.22027	703.46997	 22.00	
  5.096	 -9.576	  3.21756	  1.79482	  1.04223	  1.28623	  1.47298	  0.05865	  3.22342	703.53998	 22.00	
  5.089	-28.397	  3.21159	  1.73326	  1.08534	  1.13270	  1.63123	  0.04923	  3.21941	703.53003	 22.00	
  5.094	-47.331	  3.20877	  1.62739	  1.16844	  1.01054	  1.76602	  0.03928	  3.22059	703.46997	 22.00	
  5.104	-66.290	  3.20505	  1.48186	  1.29506	  0.92916	  1.86146	  0.03340	  3.22112	703.44000	 22.00	
  5.093	-85.207	  3.20307	  1.31786	  1.44518	  0.88923	  1.90291	  0.02679	  3.22188	703.56000	 22.00	
  5.105	-104.191	  3.19867	  1.15631	  1.60359	  0.89303	  1.88508	  0.02456	  3.22149	703.41998	 22.00	
  5.095	-123.033	  3.19483	  1.01421	  1.75581	  0.94251	  1.81455	  0.02192	  3.22173	703.45001	 22.00	
  5.109	-142.013	  3.19122	  0.90257	  1.88187	  1.03353	  1.69405	  0.02350	  3.22031	703.51001	 21.90	
  5.099	-161.165	  3.19146	  0.83026	  1.96646	  1.16534	  1.53954	  0.02364	  3.22032	703.53998	 21.90	
  5.100	180.000	  3.19300	  0.80440	  1.99616	  1.32311	  1.37553	  0.02635	  3.22175	703.56000	 21.90	
  6.800	180.000	  3.16195	  0.61391	  2.15019	  1.28670	  1.34563	  0.00469	  3.22290	703.57001	 21.90	
  6.796	-166.229	  3.15978	  0.63109	  2.12904	  1.12893	  1.50645	  0.00236	  3.22165	703.53998	 21.90	
  6.808	-152.311	  3.15911	  0.68412	  2.06503	  0.98680	  1.66689	 -0.00062	  3.22175	703.54999	 21.90	
  6.795	-138.383	  3.15854	  0.76883	  1.96439	  0.87055	  1.80810	 -0.00248	  3.21919	703.54999	 21.90	
  6.792	-124.591	  3.16243	  0.87957	  1.83873	  0.78268	  1.92769	 -0.00365	  3.22083	703.51001	 21.90	
  6.787	-110.754	  3.16772	  1.01542	  1.69005	  0.72309	  2.01434	 -0.00416	  3.22331	703.54999	 21.90	
  6.800	-96.985	  3.16850	  1.16608	  1.53142	  0.69506	  2.05940	 -0.00177	  3.21976	703.44000	 21.90	
  6.800	-83.015	  3.17387	  1.33230	  1.37505	  0.69974	  2.06433	  0.00236	  3.22173	703.47998	 21.90	
  6.787	-69.246	  3.17814	  1.49257	  1.22821	  0.73924	  2.02068	  0.00695	  3.21964	703.50000	 21.90	
  6.792	-55.409	  3.18508	  1.64496	  1.09770	  0.81116	  1.93989	  0.01195	  3.22227	703.57001	 21.90	
  6.795	-41.617	  3.18765	  1.77696	  0.99087	  0.90955	  1.82544	  0.01947	  3.22010	703.46997	 21.90	
  6.808	-27.689	  3.18741	  1.87744	  0.90821	  1.03113	  1.68352	  0.02733	  3.21641	703.59003	 21.90	
  6.796	-13.771	  3.19097	  1.94126	  0.86202	  1.18073	  1.52356	  0.03339	  3.21667	703.41998	 21.90	
  6.800	  0.000	  3.19606	  1.96361	  0.84798	  1.33955	  1.36256	  0.04015	  3.21984	703.41998	 21.90	
  6.796	 13.771	  3.19524	  1.93870	  0.86269	  1.49967	  1.20670	  0.04734	  3.21833	703.46002	 21.90	
  6.808	 27.689	  3.19800	  1.87518	  0.91018	  1.65979	  1.06055	  0.04843	  3.22152	703.46997	 21.90	
  6.795	 41.617	  3.19520	  1.76708	  0.99033	  1.80063	  0.93462	  0.04785	  3.21781	703.54999	 21.90	
  6.792	 55.409	  3.19317	  1.63459	  1.09763	  1.91181	  0.83823	  0.04597	  3.22034	703.56000	 21.90	
  6.787	 69.246	  3.19177	  1.47949	  1.23318	  1.98814	  0.77585	  0.04373	  3.22057	703.41998	 21.90	
  6.800	 83.015	  3.18823	  1.31661	  1.38096	  2.02586	  0.74117	  0.03821	  3.22042	703.45001	 21.90	
  6.800	 96.985	  3.18283	  1.14907	  1.54131	  2.01970	  0.73608	  0.03352	  3.22041	703.42999	 21.90	
  6.787	110.754	  3.17879	  0.99924	  1.69781	  1.96834	  0.76857	  0.02852	  3.22141	703.58002	 21.90	
  6.792	124.591	  3.17512	  0.86535	  1.84831	  1.88003	  0.83414	  0.02351	  3.22150	703.53003	 21.90	
  6.795	138.383	  3.16947	  0.75583	  1.97252	  1.75988	  0.92405	  0.02014	  3.22116	703.53003	 21.90	
  6.808	152.311	  3.16332	  0.67510	  2.06788	  1.61133	  1.04558	  0.01144	  3.21698	703.34998	 21.90	
  6.796	166.229	  3.16040	  0.62634	  2.13024	  1.44522	  1.18998	  0.00511	  3.21801	703.46002	 21.90	
  8.491	168.704	  3.11976	  0.43304	  2.28012	  1.40805	  1.14771	 -0.02376	  3.22136	703.42999	 21.90	
  8.502	157.493	  3.11817	  0.46684	  2.22901	  1.57396	  0.99449	 -0.01867	  3.21782	703.51001	 21.90	
  8.494	146.194	  3.12239	  0.53367	  2.14549	  1.73530	  0.85992	 -0.01103	  3.21756	703.56000	 21.90	
  8.495	135.039	  3.12874	  0.62220	  2.03502	  1.87781	  0.74682	 -0.00706	  3.22042	703.53003	 21.90	
  8.487	123.723	  3.13570	  0.73942	  1.89915	  2.00262	  0.65603	 -0.00441	  3.22238	703.45001	 21.90	
  8.492	112.575	  3.13692	  0.87130	  1.74874	  2.09262	  0.59309	  0.00148	  3.21815	703.50000	 21.90	
  8.510	101.220	  3.14194	  1.02596	  1.58616	  2.15550	  0.55276	  0.00685	  3.21808	703.57001	 21.90	
  8.500	 90.000	  3.14994	  1.19206	  1.42462	  2.18189	  0.54297	  0.01121	  3.22087	703.42999	 21.90	
  8.510	 78.780	  3.15375	  1.35815	  1.26597	  2.17152	  0.55610	  0.01075	  3.22080	703.45001	 21.90	
  8.492	 67.425	  3.15786	  1.53101	  1.11629	  2.11872	  0.60450	  0.01972	  3.21875	703.40997	 21.90	
  8.487	 56.277	  3.16141	  1.68691	  0.98392	  2.03952	  0.67041	  0.02394	  3.21906	703.54999	 21.90	
  8.495	 44.961	  3.16276	  1.83242	  0.86738	  1.92674	  0.76437	  0.02578	  3.21892	703.42999	 21.90	
  8.494	 33.806	  3.16516	  1.95291	  0.77683	  1.79553	  0.87743	  0.02483	  3.21888	703.40002	 21.90	
  8.502	 22.507	  3.16565	  2.04424	  0.70704	  1.63904	  1.01330	  0.02480	  3.22000	703.40002	 21.90	
  8.491	 11.296	  3.16403	  2.09857	  0.66879	  1.47411	  1.16529	  0.02445	  3.21873	703.47998	 21.90	
  8.500	  0.000	  3.16534	  2.12387	  0.65303	  1.31104	  1.32557	  0.01719	  3.22161	703.56000	 21.90	
  8.491	-11.296	  3.16170	  2.10350	  0.66769	  1.14358	  1.49522	  0.00879	  3.21982	703.59998	 21.90	
  8.502	-22.507	  3.16062	  2.05227	  0.70515	  0.99114	  1.66005	  0.00307	  3.22132	703.56000	 21.80	
  8.494	-33.806	  3.15570	  1.96168	  0.77383	  0.85404	  1.81413	 -0.00129	  3.21979	703.53998	 21.80	
  8.495	-44.961	  3.15007	  1.84398	  0.86392	  0.73258	  1.95359	 -0.01065	  3.21914	703.59998	 21.80	
  8.487	-56.277	  3.14292	  1.70298	  0.97514	  0.63557	  2.06611	 -0.01626	  3.21681	703.47998	 21.80	
  8.492	-67.425	  3.13941	  1.54874	  1.10402	  0.56346	  2.15221	 -0.01990	  3.21932	703.60999	 21.80	
  8.510	-78.780	  3.13491	  1.37852	  1.25545	  0.51486	  2.20737	 -0.02245	  3.22050	703.47998	 21.80	
  8.500	-90.000	  3.12996	  1.21041	  1.41464	  0.49751	  2.22147	 -0.02502	  3.22069	703.46002	 21.80	
  8.510	-101.220	  3.12567	  1.04637	  1.57818	  0.50400	  2.20067	 -0.03104	  3.22178	703.58002	 21.80	
  8.492	-112.575	  3.11734	  0.89202	  1.73848	  0.54166	  2.13957	 -0.03217	  3.21651	703.51001	 21.80	
  8.487	-123.723	  3.11734	  0.75835	  1.88942	  0.60275	  2.05220	 -0.03022	  3.21921	703.46997	 21.80	
  8.495	-135.039	  3.11453	  0.64298	  2.02357	  0.69073	  1.93314	 -0.02673	  3.21783	703.48999	 21.80	
  8.494	-146.194	  3.11038	  0.54892	  2.13473	  0.79850	  1.79278	 -0.02876	  3.21576	703.40002	 21.80	
  8.502	-157.493	  3.11281	  0.47846	  2.22221	  0.92883	  1.63889	 -0.02628	  3.21884	703.40002	 21.80	
  8.491	-168.704	  3.11174	  0.43650	  2.27389	  1.07717	  1.47441	 -0.02369	  3.21773	703.40997	 21.80	
  8.500	180.000	  3.11090	  0.41968	  2.29351	  1.23951	  1.30493	 -0.02298	  3.21538	703.45001	 21.80	
 10.200	180.000	  3.05917	  0.23133	  2.43161	  1.18995	  1.26213	 -0.05138	  3.21934	703.40997	 21.80	
 10.191	-170.497	  3.05741	  0.24589	  2.41299	  1.02396	  1.42988	 -0.05281	  3.21897	703.53003	 21.80	
 10.210	-161.034	  3.05578	  0.27846	  2.36877	  0.86888	  1.59884	 -0.05581	  3.21896	703.40997	 21.80	
 10.194	-151.526	  3.05638	  0.33644	  2.29562	  0.73273	  1.76009	 -0.05491	  3.21857	703.44000	 21.80	
 10.190	-142.105	  3.05885	  0.41589	  2.19598	  0.61242	  1.91290	 -0.05346	  3.21930	703.41998	 21.80	
 10.215	-132.646	  3.05903	  0.51151	  2.07308	  0.50327	  2.05300	 -0.05470	  3.21822	703.34998	 21.80	
 10.203	-123.092	  3.06029	  0.63345	  1.93160	  0.42067	  2.16945	 -0.05400	  3.21709	703.46997	 21.80	
 10.192	-113.678	  3.06635	  0.77125	  1.77731	  0.36401	  2.25866	 -0.05915	  3.21972	703.53998	 21.80	
 10.208	-104.249	  3.07060	  0.92096	  1.61597	  0.32369	  2.32604	 -0.05764	  3.22061	703.58002	 21.80	
 10.210	-94.801	  3.07383	  1.08271	  1.45077	  0.30894	  2.35369	 -0.05262	  3.21652	703.46997	 21.80	
 10.210	-85.199	  3.07833	  1.25229	  1.28534	  0.31140	  2.35995	 -0.04908	  3.21762	703.59003	 21.80	
 10.208	-75.751	  3.08612	  1.42415	  1.12876	  0.34059	  2.33133	 -0.04823	  3.21950	703.56000	 21.80	
 10.192	-66.322	  3.08940	  1.59117	  0.98227	  0.38819	  2.27220	 -0.04872	  3.21670	703.54999	 21.80	
 10.203	-56.908	  3.09335	  1.74901	  0.84869	  0.45320	  2.18975	 -0.04896	  3.21790	703.54999	 21.80	
 10.215	-47.354	  3.10065	  1.89828	  0.73303	  0.54870	  2.07434	 -0.04268	  3.21902	703.42999	 21.80	
 10.190	-37.895	  3.10756	  2.02583	  0.63924	  0.66596	  1.93853	 -0.03367	  3.22023	703.52002	 21.80	
 10.194	-28.474	  3.11223	  2.13163	  0.56284	  0.79845	  1.78714	 -0.02938	  3.21941	703.51001	 21.80	
 10.210	-18.966	  3.11627	  2.20789	  0.50660	  0.94143	  1.62809	 -0.02452	  3.21986	703.70001	 21.80	
 10.191	 -9.503	  3.11843	  2.25278	  0.47637	  1.10381	  1.45692	 -0.01815	  3.21928	703.66998	 21.80	
 10.200	  0.000	  3.12177	  2.26872	  0.46414	  1.27152	  1.28470	 -0.00995	  3.22107	703.65002	 21.80	
 10.191	  9.503	  3.12239	  2.25058	  0.47690	  1.43897	  1.12300	 -0.00133	  3.21879	703.51001	 21.80	
 10.210	 18.966	  3.12316	  2.20383	  0.51011	  1.60795	  0.96639	 -0.00142	  3.22047	703.56000	 21.80	
 10.194	 28.474	  3.12278	  2.12367	  0.56826	  1.77236	  0.82133	 -0.00110	  3.22051	703.51001	 21.80	
 10.190	 37.895	  3.12250	  2.01597	  0.64593	  1.91882	  0.69510	 -0.00159	  3.22117	703.53998	 21.80	
 10.215	 47.354	  3.12004	  1.88610	  0.74349	  2.05390	  0.58365	 -0.00074	  3.22109	703.60999	 21.80	
 10.203	 56.908	  3.11688	  1.73575	  0.85962	  2.16497	  0.49270	 -0.00470	  3.21935	703.65002	 21.80	
 10.192	 66.322	  3.11354	  1.57532	  0.99340	  2.24755	  0.42700	 -0.00942	  3.21879	703.62000	 21.80	
 10.208	 75.751	  3.10889	  1.40524	  1.13855	  2.30398	  0.37791	 -0.01530	  3.22039	703.60999	 21.80	
 10.210	 85.199	  3.10259	  1.23038	  1.29592	  2.32703	  0.35402	 -0.01689	  3.21935	703.52002	 21.80	
 10.210	 94.801	  3.09664	  1.05779	  1.46309	  2.32083	  0.35254	 -0.01777	  3.21889	703.58002	 21.80	
 10.208	104.249	  3.09255	  0.89461	  1.63093	  2.28203	  0.37441	 -0.02264	  3.22137	703.59998	 21.80	
 10.192	113.678	  3.08696	  0.74405	  1.79327	  2.21155	  0.41697	 -0.03019	  3.21922	703.53003	 21.80	
 10.203	123.092	  3.07975	  0.61204	  1.94358	  2.11481	  0.48405	 -0.03429	  3.21795	703.54999	 21.80	
 10.215	132.646	  3.07513	  0.49349	  2.08514	  1.99297	  0.57121	 -0.03640	  3.21970	703.52002	 21.80	
 10.190	142.105	  3.07079	  0.39846	  2.20473	  1.85069	  0.67904	 -0.03806	  3.21975	703.65002	 21.80	
 10.194	151.526	  3.06722	  0.32375	  2.30267	  1.69808	  0.80148	 -0.04497	  3.21849	703.59998	 21.80	
 10.210	161.034	  3.06336	  0.26916	  2.37492	  1.52898	  0.94451	 -0.04968	  3.21994	703.69000	 21.80	
 10.191	170.497	  3.06017	  0.23985	  2.41831	  1.35757	  1.10083	 -0.05142	  3.21916	703.65002	 21.80	
 11.899	171.783	  2.98999	  0.04701	  2.54526	  1.30025	  1.04028	 -0.07980	  3.21560	703.51001	 21.80	
 11.890	163.610	  2.99713	  0.07751	  2.50771	  1.47415	  0.88813	 -0.07885	  3.21994	703.58002	 21.80	
 11.889	155.445	  2.99787	  0.12075	  2.44403	  1.64351	  0.74148	 -0.07667	  3.21837	703.59003	 21.80	
 11.909	147.299	  3.00237	  0.18256	  2.35986	  1.80454	  0.61208	 -0.07300	  3.21705	703.54999	 21.80	
 11.902	139.148	  3.00775	  0.26319	  2.25180	  1.95985	  0.49288	 -0.06960	  3.21925	703.53003	 21.80	
 11.894	130.867	  3.01072	  0.36733	  2.12116	  2.09843	  0.39369	 -0.06715	  3.21685	703.57001	 21.80	
 11.897	122.732	  3.01759	  0.48241	  1.98001	  2.21949	  0.31134	 -0.06456	  3.21880	703.53998	 21.80	
 11.903	114.597	  3.02391	  0.61431	  1.82741	  2.31822	  0.24617	 -0.06175	  3.22101	703.45001	 21.80	
 11.893	106.346	  3.02977	  0.76237	  1.66391	  2.38976	  0.20282	 -0.05605	  3.21834	703.52002	 21.80	
 11.892	 98.155	  3.03797	  0.92399	  1.49890	  2.43945	  0.17735	 -0.05131	  3.22162	703.58002	 21.80	
 11.900	 90.000	  3.04036	  1.08937	  1.32983	  2.45807	  0.16785	 -0.04985	  3.21746	703.60999	 21.80	
 11.892	 81.845	  3.04844	  1.26183	  1.16953	  2.45580	  0.17674	 -0.04870	  3.22073	703.53003	 21.80	
 11.893	 73.654	  3.05162	  1.43754	  1.01175	  2.41802	  0.20690	 -0.04690	  3.21657	703.50000	 21.80	
 11.903	 65.403	  3.05587	  1.61000	  0.86703	  2.35924	  0.25527	 -0.04412	  3.21783	703.51001	 21.80	
 11.897	 57.268	  3.05808	  1.77215	  0.73335	  2.27575	  0.31892	 -0.03854	  3.21807	703.53003	 21.80	
 11.894	 49.133	  3.06061	  1.92639	  0.61364	  2.16707	  0.40367	 -0.03554	  3.21761	703.53998	 21.80	
 11.902	 40.852	  3.06473	  2.06735	  0.51256	  2.03579	  0.51113	 -0.03211	  3.21970	703.50000	 21.80	
 11.909	 32.701	  3.06489	  2.18330	  0.42821	  1.88972	  0.63083	 -0.03116	  3.21845	703.56000	 21.80	
 11.889	 24.555	  3.06627	  2.27689	  0.36432	  1.73557	  0.76307	 -0.03014	  3.21924	703.62000	 21.80	
 11.890	 16.390	  3.06662	  2.34616	  0.31776	  1.56813	  0.91146	 -0.02944	  3.21787	703.60999	 21.80	
 11.899	  8.217	  3.06563	  2.38959	  0.28909	  1.39581	  1.07313	 -0.03271	  3.21909	703.56000	 21.80	
 11.900	  0.000	  3.06504	  2.40606	  0.27809	  1.22676	  1.23753	 -0.03941	  3.21896	703.59003	 21.80	
 11.899	 -8.217	  3.06334	  2.39360	  0.28576	  1.05666	  1.40790	 -0.04667	  3.21857	703.62000	 21.80	
 11.890	-16.390	  3.06080	  2.35366	  0.31358	  0.89421	  1.58155	 -0.05291	  3.21882	703.58002	 21.80	
 11.889	-24.555	  3.05565	  2.28563	  0.35944	  0.74497	  1.74529	 -0.05466	  3.21615	703.59003	 21.80	
 11.909	-32.701	  3.05206	  2.19654	  0.42059	  0.60638	  1.90495	 -0.06020	  3.21767	703.59998	 21.80	
 11.902	-40.852	  3.04725	  2.08127	  0.50312	  0.48183	  2.05305	 -0.06256	  3.21994	703.57001	 21.80	
 11.894	-49.133	  3.04147	  1.94418	  0.60583	  0.37617	  2.18599	 -0.06839	  3.21801	703.64001	 21.80	
 11.897	-57.268	  3.03389	  1.79341	  0.72269	  0.28999	  2.29307	 -0.06814	  3.21427	703.62000	 21.80	
 11.903	-65.403	  3.02963	  1.63460	  0.85276	  0.22047	  2.38263	 -0.06855	  3.21694	703.59998	 21.80	
 11.893	-73.654	  3.02308	  1.46298	  0.99683	  0.16922	  2.44512	 -0.06857	  3.21789	703.60999	 21.80	
 11.892	-81.845	  3.01853	  1.28755	  1.15321	  0.13429	  2.48559	 -0.06771	  3.21968	703.59003	 21.80	
 11.900	-90.000	  3.01315	  1.11807	  1.31359	  0.12084	  2.49483	 -0.06938	  3.21805	703.62000	 21.80	
 11.892	-98.155	  3.00796	  0.95099	  1.48029	  0.12596	  2.47896	 -0.06959	  3.21823	703.70001	 21.70	
 11.893	-106.346	  3.00439	  0.79001	  1.64884	  0.14693	  2.43556	 -0.07344	  3.22050	703.57001	 21.80	
 11.903	-114.597	  2.99952	  0.64150	  1.81168	  0.18874	  2.36629	 -0.07396	  3.21835	703.72998	 21.70	
 11.897	-122.732	  2.99793	  0.51062	  1.96517	  0.25161	  2.27423	 -0.07194	  3.21918	703.62000	 21.80	
 11.894	-130.867	  2.99182	  0.38640	  2.11001	  0.32475	  2.15908	 -0.07141	  3.21665	703.71997	 21.70	
 11.902	-139.148	  2.99265	  0.28635	  2.24011	  0.42352	  2.02577	 -0.07607	  3.21905	703.60999	 21.70	
 11.909	-147.299	  2.99148	  0.19923	  2.35159	  0.53859	  1.87291	 -0.07809	  3.21842	703.66998	 21.80	
 11.889	-155.445	  2.99039	  0.13346	  2.43867	  0.66995	  1.70903	 -0.07931	  3.21748	703.59003	 21.80	
 11.890	-163.610	  2.99085	  0.08704	  2.50305	  0.80912	  1.55254	 -0.08191	  3.21942	703.63000	 21.80	
 11.899	-171.783	  2.99072	  0.05686	  2.54236	  0.96454	  1.38063	 -0.07949	  3.21846	703.65002	 21.70	
 11.900	180.000	  2.98815	  0.04166	  2.55609	  1.13034	  1.20402	 -0.08057	  3.21626	703.53003	 21.70	
 13.600	180.000	  2.91318	 -0.14117	  2.67547	  1.06537	  1.14632	 -0.10618	  3.21831	703.67999	 21.70	
 13.608	-172.853	  2.90668	 -0.13419	  2.66090	  0.89737	  1.31382	 -0.10356	  3.21562	703.66998	 21.70	
 13.611	-165.583	  2.90680	 -0.10766	  2.62402	  0.74000	  1.48683	 -0.10257	  3.21471	703.57001	 21.80	
 13.601	-158.353	  2.91011	 -0.06382	  2.56837	  0.59700	  1.65746	 -0.09819	  3.21908	703.59003	 21.70	
 13.609	-151.210	  2.90935	 -0.00653	  2.48783	  0.46315	  1.82230	 -0.09397	  3.21647	703.50000	 21.70	
 13.611	-143.999	  2.90968	  0.06496	  2.38898	  0.34116	  1.97904	 -0.09456	  3.21814	703.51001	 21.70	
 13.601	-136.825	  2.91478	  0.15620	  2.27220	  0.23935	  2.12488	 -0.08887	  3.22008	703.62000	 21.70	
 13.596	-129.640	  2.91412	  0.25773	  2.13907	  0.14949	  2.25193	 -0.08486	  3.21674	703.51001	 21.70	
