FileType=PCF
NHL=14
Date=08/26/17	11:54:27
Facility=APL
Serial=16328-8
Customer=NASA
NP=6
Mach=0.200000
Calibration=1:1
CalPts=490
TstPts=95
PortNumbering=AP Standard
Units=Torr C m/s kg/m^3 deg mm 
Theta[deg]	Phi[deg]	P1[Torr]	P2[Torr]	P3[Torr]	P4[Torr]	P5[Torr]	P6[Torr]	Pt[Torr]	Ps[Abs,Torr]	Ts[C]	
  0.000	  0.000	 19.59974	 10.10675	  9.98921	  9.98017	 10.08801	  0.19213	 19.57246	711.00403	 25.00	
  1.691	128.401	 19.57892	  9.50968	 10.52093	 10.79086	  9.31345	  0.17796	 19.54878	710.98798	 25.10	
  1.692	 77.194	 19.56902	 10.30203	  9.72211	 10.97131	  9.11695	  0.17650	 19.54636	710.88098	 25.00	
  1.699	 26.182	 19.58909	 11.02375	  9.09081	 10.40147	  9.62282	  0.18148	 19.56685	710.91901	 25.00	
  1.699	-26.182	 19.58565	 11.00480	  9.11151	  9.46928	 10.49479	  0.17901	 19.56676	710.94800	 25.00	
  1.692	-77.194	 19.60175	 10.28425	  9.77376	  8.95951	 11.06024	  0.16846	 19.58068	710.94299	 25.00	
  1.691	-128.401	 19.58353	  9.49376	 10.55088	  9.14488	 10.87185	  0.16998	 19.56072	711.16199	 25.00	
  1.700	180.000	 19.56816	  9.14254	 10.89091	  9.93893	 10.07914	  0.17678	 19.54858	711.04602	 25.00	
  3.400	180.000	 19.59715	  8.14407	 11.91522	  9.89709	 10.04187	  0.14909	 19.59940	710.88898	 25.00	
  3.388	-152.325	 19.58787	  8.34369	 11.67472	  8.98919	 10.97583	  0.13697	 19.59936	711.03601	 25.00	
  3.397	-124.529	 19.54786	  8.91048	 10.97252	  8.29236	 11.70118	  0.12638	 19.55865	710.96399	 25.00	
  3.399	-96.763	 19.55178	  9.76324	 10.13596	  7.93528	 12.02552	  0.07164	 19.55901	711.02899	 25.00	
  3.394	-69.283	 19.56880	 10.69130	  9.24046	  8.07961	 11.92196	  0.11650	 19.58413	710.83301	 25.00	
  3.400	-41.398	 19.53931	 11.52405	  8.44605	  8.58372	 11.30657	  0.12887	 19.55776	711.05200	 25.10	
  3.401	-14.021	 19.58290	 12.01753	  8.03743	  9.33553	 10.45859	  0.12868	 19.59274	710.95599	 25.10	
  3.401	 14.021	 19.54671	 12.02173	  7.99392	 10.33513	  9.48085	  0.13290	 19.55733	711.02698	 25.10	
  3.400	 41.398	 19.53947	 11.57898	  8.40847	 11.23867	  8.68828	  0.13771	 19.56032	711.11200	 25.10	
  3.394	 69.283	 19.55166	 10.76846	  9.17305	 11.82887	  8.21222	  0.13377	 19.56993	710.97101	 25.10	
  3.399	 96.763	 19.55352	  9.80714	 10.07677	 11.97234	  8.10232	  0.13270	 19.56769	710.94800	 25.10	
  3.397	124.529	 19.53890	  8.96715	 10.92302	 11.61594	  8.41141	  0.14290	 19.55010	711.00500	 25.10	
  3.388	152.325	 19.57735	  8.36725	 11.64469	 10.89150	  9.12840	  0.15117	 19.58973	711.09900	 25.10	
  5.099	161.165	 19.46577	  7.20137	 12.64566	 10.80214	  8.95495	  0.07703	 19.56525	711.03802	 25.10	
  5.109	142.013	 19.46422	  7.64926	 12.11784	 11.72612	  8.10562	  0.04449	 19.56691	711.12000	 25.10	
  5.095	123.033	 19.50400	  8.40666	 11.34237	 12.44694	  7.47414	  0.02825	 19.60091	711.14801	 25.10	
  5.105	104.191	 19.43647	  9.24397	 10.37882	 12.83337	  7.08046	  0.05307	 19.54304	710.99597	 25.10	
  5.093	 85.207	 19.46699	 10.16640	  9.49258	 12.90253	  7.00679	  0.01638	 19.57269	710.97601	 25.10	
  5.104	 66.290	 19.46017	 11.17643	  8.53583	 12.64325	  7.20099	  0.05105	 19.57416	711.02698	 25.10	
  5.094	 47.331	 19.45207	 12.03474	  7.74057	 12.03884	  7.67146	  0.07766	 19.57198	710.98798	 25.10	
  5.089	 28.397	 19.46528	 12.66641	  7.15893	 11.19707	  8.42353	  0.03700	 19.58540	711.12299	 25.10	
  5.096	  9.576	 19.45311	 12.99990	  6.84477	 10.17941	  9.32031	  0.08401	 19.57039	710.97400	 25.10	
  5.096	 -9.576	 19.46460	 12.95725	  6.88965	  9.20535	 10.33170	  0.04404	 19.57255	711.02100	 25.10	
  5.089	-28.397	 19.45880	 12.60259	  7.19006	  8.33822	 11.28522	  0.03829	 19.57700	710.88397	 25.10	
  5.094	-47.331	 19.46509	 11.93989	  7.79403	  7.59377	 12.11986	 -0.01753	 19.58437	710.93103	 25.10	
  5.104	-66.290	 19.46109	 11.05050	  8.60838	  7.05759	 12.74444	 -0.03742	 19.58406	710.99200	 25.10	
  5.093	-85.207	 19.44680	 10.05573	  9.54691	  6.82539	 12.99972	 -0.03611	 19.55567	710.87097	 25.10	
  5.105	-104.191	 19.43953	  9.12238	 10.47336	  6.85885	 12.92723	 -0.02982	 19.55476	711.00500	 25.10	
  5.095	-123.033	 19.44664	  8.26319	 11.37323	  7.32268	 12.50185	 -0.00575	 19.54834	710.97101	 25.10	
  5.109	-142.013	 19.43834	  7.56591	 12.15974	  7.98181	 11.78453	  0.00631	 19.54195	710.99902	 25.10	
  5.099	-161.165	 19.48657	  7.17032	 12.69802	  8.84466	 10.87466	  0.05596	 19.58541	710.94000	 25.10	
  5.100	180.000	 19.49090	  7.07843	 12.84087	  9.76202	  9.91770	  0.06111	 19.58912	710.99799	 25.10	
  6.800	180.000	 19.31056	  5.84671	 13.77221	  9.58041	  9.71022	 -0.02415	 19.57592	710.90302	 25.10	
  6.796	-166.229	 19.33574	  5.90593	 13.68208	  8.69692	 10.66708	 -0.06273	 19.59968	710.91998	 25.10	
  6.808	-152.311	 19.30680	  6.18263	 13.30457	  7.78093	 11.62608	 -0.08342	 19.57427	711.01001	 25.10	
  6.795	-138.383	 19.29498	  6.70540	 12.68376	  6.96343	 12.49932	 -0.09223	 19.56860	710.98199	 25.10	
  6.792	-124.591	 19.30491	  7.39972	 11.90151	  6.33126	 13.20753	 -0.12587	 19.57956	711.13898	 25.10	
  6.787	-110.754	 19.28973	  8.23156	 10.96481	  5.87152	 13.67384	 -0.14545	 19.57269	711.00201	 25.10	
  6.800	-96.985	 19.28157	  9.15468	 10.07955	  5.60255	 13.91664	 -0.17119	 19.57414	711.06897	 25.10	
  6.800	-83.015	 19.28766	 10.06535	  9.15125	  5.57862	 13.90291	 -0.18176	 19.57095	711.01898	 25.10	
  6.787	-69.246	 19.27800	 11.02691	  8.21236	  5.84764	 13.64045	 -0.17651	 19.57269	711.08801	 25.10	
  6.792	-55.409	 19.25462	 11.95573	  7.31832	  6.25872	 13.13067	 -0.15849	 19.56039	710.96698	 25.10	
  6.795	-41.617	 19.28638	 12.78133	  6.59399	  6.88978	 12.43177	 -0.12742	 19.57945	711.05798	 25.10	
  6.808	-27.689	 19.28090	 13.41302	  6.02762	  7.66994	 11.52849	 -0.09841	 19.57872	710.99799	 25.10	
  6.796	-13.771	 19.28644	 13.80021	  5.73485	  8.55915	 10.55960	 -0.06362	 19.58116	711.02100	 25.10	
  6.800	  0.000	 19.29272	 13.95046	  5.64142	  9.47528	  9.63461	 -0.04544	 19.59241	711.03003	 25.10	
  6.796	 13.771	 19.25819	 13.83378	  5.69763	 10.42461	  8.65209	 -0.05475	 19.55155	711.08502	 25.10	
  6.808	 27.689	 19.27119	 13.49158	  5.99707	 11.42349	  7.74474	 -0.06968	 19.56889	711.18402	 25.10	
  6.795	 41.617	 19.28672	 12.92251	  6.54130	 12.30213	  6.97685	 -0.06984	 19.58132	711.08099	 25.10	
  6.792	 55.409	 19.30774	 12.16289	  7.27002	 13.04646	  6.37824	 -0.08586	 19.59418	711.09900	 25.10	
  6.787	 69.246	 19.28794	 11.24430	  8.10579	 13.54411	  5.96078	 -0.10502	 19.57055	711.11200	 25.10	
  6.800	 83.015	 19.30343	 10.28159	  9.02701	 13.82197	  5.79683	 -0.09880	 19.57806	711.15601	 25.10	
  6.800	 96.985	 19.30433	  9.27515	  9.94675	 13.83560	  5.83629	 -0.10842	 19.57746	711.20898	 25.10	
  6.787	110.754	 19.32178	  8.33334	 10.87366	 13.59428	  6.06277	 -0.11237	 19.58391	711.11200	 25.10	
  6.792	124.591	 19.29534	  7.46369	 11.78982	 13.09778	  6.49163	 -0.08066	 19.55240	711.16699	 25.10	
  6.795	138.383	 19.28530	  6.74452	 12.57969	 12.41588	  7.09924	 -0.06061	 19.54778	711.05701	 25.10	
  6.808	152.311	 19.30027	  6.18082	 13.21945	 11.57117	  7.87353	 -0.04989	 19.56090	711.13098	 25.10	
  6.796	166.229	 19.29951	  5.84683	 13.61660	 10.60482	  8.78098	 -0.03521	 19.56769	710.98700	 25.10	
  8.491	168.704	 19.08341	  4.61656	 14.51686	 10.42907	  8.55044	 -0.15961	 19.58111	711.08899	 25.10	
  8.502	157.493	 19.05309	  4.87110	 14.17639	 11.40799	  7.57261	 -0.18803	 19.55789	711.05798	 25.10	
  8.494	146.194	 19.07071	  5.32754	 13.65559	 12.34889	  6.70936	 -0.19598	 19.57035	710.99597	 25.10	
  8.495	135.039	 19.09797	  5.93714	 12.97639	 13.19006	  5.95916	 -0.21196	 19.59714	711.12299	 25.10	
  8.487	123.723	 19.05504	  6.70445	 12.08515	 13.83338	  5.38741	 -0.24268	 19.55210	711.23798	 25.10	
  8.492	112.575	 19.08092	  7.57541	 11.16040	 14.33272	  5.00397	 -0.27697	 19.57928	711.17798	 25.10	
  8.510	101.220	 19.07409	  8.53052	 10.14288	 14.64161	  4.75569	 -0.29576	 19.57185	711.23798	 25.10	
  8.500	 90.000	 19.09952	  9.55070	  9.24770	 14.73814	  4.66163	 -0.27451	 19.60116	711.26501	 25.10	
  8.510	 78.780	 19.05406	 10.56306	  8.27609	 14.59149	  4.71003	 -0.25341	 19.57584	711.21997	 25.10	
  8.492	 67.425	 19.02355	 11.53862	  7.30605	 14.23537	  4.91465	 -0.24322	 19.54876	711.25702	 25.10	
  8.487	 56.277	 19.05384	 12.48129	  6.46092	 13.74584	  5.28930	 -0.22662	 19.59409	711.10901	 25.10	
  8.495	 44.961	 19.02626	 13.28764	  5.70103	 13.01871	  5.83203	 -0.21665	 19.57157	711.28802	 25.10	
  8.494	 33.806	 19.00414	 13.93641	  5.14322	 12.15119	  6.55106	 -0.20854	 19.55310	711.17499	 25.10	
  8.502	 22.507	 19.04032	 14.45480	  4.75243	 11.22030	  7.43385	 -0.22239	 19.59700	711.04401	 25.10	
  8.491	 11.296	 19.00136	 14.70627	  4.52071	 10.17924	  8.37479	 -0.18946	 19.55259	711.09198	 25.10	
  8.500	  0.000	 19.02208	 14.80638	  4.45362	  9.21280	  9.39522	 -0.18159	 19.57490	711.04102	 25.10	
  8.491	-11.296	 19.03199	 14.67894	  4.55981	  8.25778	 10.36955	 -0.19713	 19.57728	711.12000	 25.10	
  8.502	-22.507	 19.03172	 14.35888	  4.79948	  7.33482	 11.35147	 -0.22685	 19.59311	711.23798	 25.10	
  8.494	-33.806	 19.00609	 13.80474	  5.21260	  6.43774	 12.30083	 -0.25481	 19.56688	711.11401	 25.10	
  8.495	-44.961	 19.00291	 13.10083	  5.79499	  5.68836	 13.14300	 -0.27513	 19.56082	710.99597	 25.10	
  8.487	-56.277	 19.00356	 12.23721	  6.56160	  5.10949	 13.82484	 -0.30540	 19.55873	711.11401	 25.10	
  8.492	-67.425	 19.00856	 11.30237	  7.43971	  4.67976	 14.33953	 -0.33394	 19.56224	711.14001	 25.10	
  8.510	-78.780	 19.01294	 10.28190	  8.41085	  4.40498	 14.66359	 -0.34674	 19.55315	711.04602	 25.10	
  8.500	-90.000	 19.03496	  9.25726	  9.39136	  4.35822	 14.78757	 -0.34833	 19.56713	711.22998	 25.10	
  8.510	-101.220	 19.03461	  8.26824	 10.29406	  4.47527	 14.70294	 -0.32301	 19.56791	711.17102	 25.10	
  8.492	-112.575	 19.05403	  7.34635	 11.28274	  4.76321	 14.40078	 -0.27393	 19.57319	711.14398	 25.10	
  8.487	-123.723	 19.03678	  6.49132	 12.20348	  5.19792	 13.89400	 -0.25157	 19.54908	711.19000	 25.10	
  8.495	-135.039	 19.06405	  5.75630	 13.05895	  5.81039	 13.24362	 -0.22463	 19.58336	711.15601	 25.10	
  8.494	-146.194	 19.04902	  5.17538	 13.72812	  6.59366	 12.39923	 -0.21863	 19.56288	711.19299	 25.10	
  8.502	-157.493	 19.07665	  4.78925	 14.24498	  7.50897	 11.45852	 -0.22454	 19.57761	711.15601	 25.10	
  8.491	-168.704	 19.07032	  4.57724	 14.53073	  8.44797	 10.46720	 -0.18767	 19.56000	711.13300	 25.10	
  8.500	180.000	 19.08078	  4.52026	 14.63868	  9.38902	  9.51478	 -0.14465	 19.57158	711.30499	 25.10	
 10.200	180.000	 18.78340	  3.29929	 15.46625	  9.14536	  9.22772	 -0.29614	 19.57942	711.13098	 25.10	
 10.191	-170.497	 18.78413	  3.32800	 15.38701	  8.18662	 10.21205	 -0.33853	 19.58757	711.19800	 25.10	
 10.210	-161.034	 18.76028	  3.49959	 15.11979	  7.21217	 11.21265	 -0.37413	 19.56901	711.08099	 25.10	
 10.194	-151.526	 18.76438	  3.83788	 14.68277	  6.27189	 12.20344	 -0.37386	 19.56939	711.21997	 25.10	
 10.190	-142.105	 18.75810	  4.29553	 14.09867	  5.37646	 13.09855	 -0.35994	 19.57987	711.14801	 25.10	
 10.215	-132.646	 18.77160	  4.90909	 13.38278	  4.63979	 13.91822	 -0.36449	 19.60213	711.23798	 25.10	
 10.203	-123.092	 18.73258	  5.66417	 12.49008	  4.02583	 14.55548	 -0.38347	 19.55926	711.18402	 25.10	
 10.192	-113.678	 18.73633	  6.52740	 11.55161	  3.56051	 15.07458	 -0.41769	 19.57691	711.25098	 25.10	
 10.208	-104.249	 18.73272	  7.44548	 10.55586	  3.23291	 15.43414	 -0.47335	 19.57746	711.24103	 25.10	
 10.210	-94.801	 18.71627	  8.41764	  9.62990	  3.06915	 15.59525	 -0.51964	 19.57049	711.19299	 25.10	
 10.210	-85.199	 18.70354	  9.46946	  8.61292	  3.04160	 15.59098	 -0.52863	 19.57468	711.20898	 25.10	
 10.208	-75.751	 18.69445	 10.50428	  7.61680	  3.15561	 15.40512	 -0.51657	 19.58213	711.13000	 25.10	
 10.192	-66.322	 18.68142	 11.50860	  6.65441	  3.45063	 15.02659	 -0.49459	 19.56579	711.19299	 25.10	
 10.203	-56.908	 18.68309	 12.45858	  5.78631	  3.89140	 14.49609	 -0.46810	 19.57307	711.14398	 25.10	
 10.215	-47.354	 18.68788	 13.36845	  5.04112	  4.47238	 13.82670	 -0.43324	 19.58329	711.16699	 25.10	
 10.190	-37.895	 18.68704	 14.12831	  4.40533	  5.18000	 13.01841	 -0.40614	 19.57956	711.23297	 25.10	
 10.194	-28.474	 18.66095	 14.71804	  3.88935	  6.00514	 12.08574	 -0.38916	 19.55550	711.22699	 25.10	
 10.210	-18.966	 18.66440	 15.18711	  3.51318	  6.95662	 11.07954	 -0.36464	 19.55332	711.21600	 25.10	
 10.191	 -9.503	 18.69027	 15.48524	  3.29890	  7.93744	 10.09761	 -0.33752	 19.57176	711.34497	 25.10	
 10.200	  0.000	 18.67904	 15.60049	  3.19669	  8.91232	  9.12193	 -0.32442	 19.56739	711.29401	 25.10	
 10.191	  9.503	 18.69735	 15.55465	  3.25112	  9.88873	  8.13044	 -0.34492	 19.58991	711.20099	 25.10	
 10.210	 18.966	 18.67369	 15.30341	  3.45457	 10.90858	  7.09747	 -0.37010	 19.56565	711.30499	 25.10	
 10.194	 28.474	 18.68919	 14.88362	  3.81500	 11.90843	  6.20686	 -0.36617	 19.57421	711.28198	 25.10	
 10.190	 37.895	 18.69412	 14.30731	  4.29455	 12.84513	  5.43446	 -0.35102	 19.57669	711.25098	 25.10	
 10.215	 47.354	 18.70846	 13.60334	  4.89235	 13.69352	  4.67099	 -0.35454	 19.58843	711.22998	 25.10	
 10.203	 56.908	 18.71311	 12.75099	  5.62728	 14.37343	  4.09193	 -0.38566	 19.57914	711.18201	 25.10	
 10.192	 66.322	 18.73652	 11.82632	  6.49508	 14.91743	  3.70608	 -0.40436	 19.58400	711.26300	 25.10	
 10.208	 75.751	 18.73746	 10.84172	  7.42358	 15.30069	  3.42823	 -0.42819	 19.58063	711.21198	 25.10	
 10.210	 85.199	 18.74891	  9.81897	  8.40692	 15.49035	  3.30627	 -0.44925	 19.57286	711.22699	 25.10	
 10.210	 94.801	 18.77399	  8.76970	  9.42173	 15.52344	  3.34771	 -0.49477	 19.58348	711.07397	 25.10	
 10.208	104.249	 18.77561	  7.77216	 10.37861	 15.35735	  3.51980	 -0.49033	 19.58538	711.27197	 25.10	
 10.192	113.678	 18.77242	  6.81833	 11.38365	 15.01797	  3.87970	 -0.46843	 19.57399	711.20203	 25.10	
 10.203	123.092	 18.76446	  5.94697	 12.34081	 14.52777	  4.30031	 -0.41885	 19.57227	711.17603	 25.10	
 10.215	132.646	 18.74831	  5.15574	 13.21518	 13.86935	  4.84649	 -0.37477	 19.56240	711.29602	 25.10	
 10.190	142.105	 18.77642	  4.52469	 13.98601	 13.09122	  5.52873	 -0.34930	 19.57867	711.23499	 25.10	
 10.194	151.526	 18.78077	  4.00384	 14.60585	 12.19598	  6.37561	 -0.33704	 19.58756	711.19299	 25.10	
 10.210	161.034	 18.76183	  3.60468	 15.05180	 11.19897	  7.28802	 -0.32569	 19.56823	711.13599	 25.10	
 10.191	170.497	 18.76999	  3.38179	 15.33840	 10.18097	  8.25923	 -0.30123	 19.57213	711.18402	 25.00	
 11.899	171.783	 18.40190	  2.13721	 16.15647	  9.88069	  7.87532	 -0.44335	 19.58274	711.17499	 25.10	
 11.890	163.610	 18.40671	  2.34664	 15.89851	 10.91539	  6.92232	 -0.46083	 19.58658	711.16699	 25.00	
 11.889	155.445	 18.40398	  2.67850	 15.46188	 11.91832	  5.95575	 -0.47685	 19.58089	711.23798	 25.00	
 11.909	147.299	 18.39204	  3.11947	 14.92012	 12.86952	  5.05274	 -0.48813	 19.58082	711.19501	 25.00	
 11.902	139.148	 18.43334	  3.73321	 14.26254	 13.75249	  4.32099	 -0.51421	 19.61607	711.12799	 25.00	
 11.894	130.867	 18.40481	  4.40520	 13.43541	 14.48343	  3.65069	 -0.55538	 19.58161	711.29700	 25.00	
 11.897	122.732	 18.41883	  5.18907	 12.56130	 15.13958	  3.12102	 -0.61255	 19.59272	711.21198	 25.00	
 11.903	114.597	 18.40155	  6.03879	 11.58022	 15.63614	  2.69537	 -0.66585	 19.57336	711.18701	 25.00	
 11.893	106.346	 18.38065	  6.98038	 10.54444	 15.99143	  2.38956	 -0.69510	 19.56489	711.17102	 25.00	
 11.892	 98.155	 18.38007	  7.97314	  9.54408	 16.20787	  2.19209	 -0.69648	 19.56747	711.15399	 25.00	
 11.900	 90.000	 18.39061	  8.99363	  8.57964	 16.28092	  2.08528	 -0.67549	 19.58668	711.20099	 25.00	
 11.892	 81.845	 18.35449	 10.01469	  7.55216	 16.14801	  2.13099	 -0.62707	 19.56481	711.26898	 25.00	
 11.893	 73.654	 18.35637	 11.04158	  6.57033	 15.91099	  2.29591	 -0.59952	 19.57985	711.27197	 25.00	
 11.903	 65.403	 18.34723	 12.05402	  5.63527	 15.49866	  2.59462	 -0.55776	 19.58472	711.28198	 25.00	
 11.897	 57.268	 18.32335	 12.97465	  4.82510	 14.93951	  2.98729	 -0.53309	 19.57356	711.28601	 25.00	
 11.894	 49.133	 18.30782	 13.82091	  4.09782	 14.24965	  3.53469	 -0.50477	 19.56608	711.30499	 25.00	
 11.902	 40.852	 18.29991	 14.58807	  3.42706	 13.45062	  4.19718	 -0.50052	 19.57748	711.28198	 25.00	
 11.909	 32.701	 18.31836	 15.24353	  2.85280	 12.58507	  4.99817	 -0.51683	 19.60604	711.38098	 25.00	
 11.889	 24.555	 18.30992	 15.73281	  2.40196	 11.59991	  5.88305	 -0.52591	 19.59450	711.30200	 25.00	
 11.890	 16.390	 18.28317	 16.06769	  2.09333	 10.57077	  6.79959	 -0.52093	 19.56979	711.26300	 25.00	
 11.899	  8.217	 18.27646	 16.27180	  1.91298	  9.55025	  7.74930	 -0.48037	 19.56124	711.28900	 25.00	
 11.900	  0.000	 18.27642	 16.32764	  1.85759	  8.57344	  8.76633	 -0.47640	 19.56168	711.17902	 25.00	
 11.899	 -8.217	 18.27042	 16.22487	  1.93703	  7.55994	  9.77822	 -0.48314	 19.54955	711.22400	 25.00	
 11.890	-16.390	 18.28483	 15.97992	  2.14178	  6.57389	 10.76287	 -0.50830	 19.57567	711.39001	 25.00	
 11.889	-24.555	 18.28996	 15.58218	  2.44554	  5.59258	 11.79521	 -0.51770	 19.57717	711.32800	 25.00	
 11.909	-32.701	 18.27630	 15.03106	  2.86570	  4.71657	 12.75068	 -0.53689	 19.57574	711.28601	 25.00	
 11.902	-40.852	 18.27531	 14.35763	  3.44514	  3.94250	 13.61522	 -0.54782	 19.56660	711.33301	 25.00	
 11.894	-49.133	 18.30185	 13.56382	  4.22770	  3.26899	 14.43382	 -0.58057	 19.59445	711.29401	 25.00	
 11.897	-57.268	 18.28366	 12.66232	  4.98106	  2.72568	 15.08183	 -0.60502	 19.57675	711.31702	 25.00	
 11.903	-65.403	 18.27831	 11.69617	  5.78896	  2.30993	 15.62082	 -0.63334	 19.56585	711.26099	 25.00	
 11.893	-73.654	 18.31987	 10.69910	  6.74784	  2.02619	 16.02729	 -0.64264	 19.59814	711.36700	 25.00	
 11.892	-81.845	 18.31236	  9.64005	  7.77478	  1.86073	 16.24561	 -0.66926	 19.57782	711.32501	 25.00	
 11.900	-90.000	 18.31936	  8.58761	  8.80418	  1.81451	 16.33664	 -0.66713	 19.57284	711.33301	 25.00	
 11.892	-98.155	 18.33248	  7.58557	  9.73357	  1.92359	 16.25827	 -0.65431	 19.56819	711.22699	 25.00	
 11.893	-106.346	 18.34754	  6.59457	 10.75058	  2.10144	 16.06031	 -0.61130	 19.58219	711.33698	 25.00	
 11.903	-114.597	 18.35117	  5.67229	 11.76433	  2.42215	 15.68496	 -0.55496	 19.57593	711.38898	 25.00	
 11.897	-122.732	 18.36328	  4.85971	 12.71801	  2.90356	 15.16095	 -0.51225	 19.57407	711.24298	 25.00	
 11.894	-130.867	 18.35703	  4.13376	 13.57139	  3.47872	 14.48569	 -0.49332	 19.55421	711.33698	 25.00	
 11.902	-139.148	 18.38018	  3.47052	 14.36704	  4.17033	 13.72245	 -0.50470	 19.57639	711.37500	 25.00	
 11.909	-147.299	 18.40360	  2.92893	 15.03776	  4.96745	 12.88197	 -0.51526	 19.59921	711.37598	 25.00	
 11.889	-155.445	 18.34987	  2.53751	 15.49476	  5.87504	 11.89054	 -0.53708	 19.53318	711.20697	 25.00	
 11.890	-163.610	 18.39699	  2.26894	 15.92742	  6.86444	 10.90253	 -0.52894	 19.57608	711.32501	 25.00	
 11.899	-171.783	 18.41696	  2.11528	 16.18951	  7.85990	  9.88857	 -0.49478	 19.59613	711.28802	 25.00	
 11.900	180.000	 18.39402	  2.08426	 16.23494	  8.83614	  8.87557	 -0.44790	 19.57179	711.35901	 25.00	
 13.600	180.000	 17.96163	  0.86338	 16.88183	  8.47926	  8.49181	 -0.61042	 19.57536	711.32001	 25.00	
 13.608	-172.853	 17.95541	  0.88711	 16.83243	  7.47965	  9.47763	 -0.65456	 19.57804	711.26501	 25.00	
 13.611	-165.583	 17.95693	  1.01287	 16.64909	  6.42789	 10.51901	 -0.69469	 19.58459	711.12799	 25.00	
 13.601	-158.353	 17.97806	  1.26664	 16.32812	  5.44220	 11.56175	 -0.71324	 19.60131	711.27197	 25.00	
 13.609	-151.210	 17.91693	  1.60383	 15.81664	  4.53080	 12.49047	 -0.70463	 19.54881	711.20203	 25.00	
 13.611	-143.999	 17.94050	  2.08104	 15.26543	  3.73046	 13.42505	 -0.65213	 19.57756	711.12299	 25.00	
 13.601	-136.825	 17.93430	  2.62596	 14.56524	  2.98261	 14.27966	 -0.62235	 19.57549	711.29602	 25.00	
 13.596	-129.640	 17.91734	  3.26713	 13.75507	  2.33249	 15.02597	 -0.61091	 19.56318	711.38202	 25.00	
