FileType=PCF
NHL=14
Date=08/26/17	13:05:11
Facility=APL
Serial=16328-8
Customer=NASA
NP=6
Mach=0.100000
Calibration=1:1
CalPts=490
TstPts=95
PortNumbering=AP Standard
Units=Torr C m/s kg/m^3 deg mm 
Theta[deg]	Phi[deg]	P1[Torr]	P2[Torr]	P3[Torr]	P4[Torr]	P5[Torr]	P6[Torr]	Pt[Torr]	Ps[Abs,Torr]	Ts[C]	
  0.000	  0.000	  4.97799	  2.59785	  2.55945	  2.57744	  2.62171	  0.03931	  4.97407	710.31201	 23.50	
  1.691	128.401	  4.98577	  2.45473	  2.69457	  2.75347	  2.43889	  0.03120	  4.98278	710.17902	 23.50	
  1.692	 77.194	  4.97588	  2.64711	  2.49319	  2.79511	  2.38535	  0.03389	  4.97595	710.19598	 23.50	
  1.699	 26.182	  4.97720	  2.79997	  2.33804	  2.66944	  2.50554	  0.03249	  4.97421	710.28101	 23.50	
  1.699	-26.182	  4.97198	  2.78438	  2.34427	  2.45723	  2.70981	  0.02709	  4.96891	710.29999	 23.50	
  1.692	-77.194	  4.97350	  2.63259	  2.50161	  2.33901	  2.83903	  0.03236	  4.97164	710.24103	 23.50	
  1.691	-128.401	  4.97788	  2.44074	  2.70538	  2.38881	  2.79937	  0.03284	  4.97483	710.23499	 23.50	
  1.700	180.000	  4.96617	  2.34996	  2.78746	  2.56808	  2.61398	  0.03498	  4.96251	710.29700	 23.50	
  3.400	180.000	  4.96861	  2.08490	  3.02695	  2.53865	  2.58457	  0.01917	  4.97382	710.35602	 23.50	
  3.388	-152.325	  4.98002	  2.13726	  2.97701	  2.32840	  2.81320	  0.01957	  4.98696	710.23499	 23.50	
  3.397	-124.529	  4.97758	  2.27256	  2.81303	  2.14925	  2.99719	  0.00896	  4.98176	710.21899	 23.50	
  3.399	-96.763	  4.96573	  2.48137	  2.57173	  2.06276	  3.07762	  0.00093	  4.97051	710.19598	 23.50	
  3.394	-69.283	  4.96005	  2.71333	  2.34395	  2.08559	  3.04181	  0.00795	  4.96463	710.17401	 23.50	
  3.400	-41.398	  4.95764	  2.91842	  2.15374	  2.20543	  2.89499	  0.00808	  4.96246	710.27899	 23.50	
  3.401	-14.021	  4.96517	  3.04417	  2.05708	  2.40521	  2.69327	  0.01725	  4.96918	710.31097	 23.50	
  3.401	 14.021	  4.96998	  3.05458	  2.05641	  2.64665	  2.46166	  0.01860	  4.97556	710.28998	 23.50	
  3.400	 41.398	  4.97954	  2.95313	  2.15816	  2.87082	  2.26792	  0.01861	  4.98701	710.26398	 23.50	
  3.394	 69.283	  4.97803	  2.75016	  2.34386	  3.01258	  2.14662	  0.01376	  4.98345	710.15698	 23.50	
  3.399	 96.763	  4.96619	  2.50967	  2.56657	  3.04627	  2.11454	  0.02056	  4.97196	710.28302	 23.50	
  3.397	124.529	  4.96923	  2.29372	  2.79479	  2.96052	  2.19250	  0.01425	  4.97331	710.17700	 23.50	
  3.388	152.325	  4.96402	  2.14262	  2.95991	  2.77565	  2.35225	  0.01952	  4.96759	710.27197	 23.50	
  5.099	161.165	  4.93939	  1.83679	  3.22052	  2.76223	  2.29863	  0.00474	  4.96631	710.22400	 23.50	
  5.109	142.013	  4.93432	  1.95096	  3.08495	  2.98823	  2.08606	  0.00247	  4.96286	710.23798	 23.50	
  5.095	123.033	  4.94100	  2.13176	  2.89212	  3.16520	  1.93702	 -0.00431	  4.96848	710.20001	 23.50	
  5.105	104.191	  4.93403	  2.34874	  2.65268	  3.26318	  1.84157	 -0.00333	  4.95949	710.27600	 23.50	
  5.093	 85.207	  4.94401	  2.60286	  2.40803	  3.28560	  1.82767	 -0.00637	  4.97302	710.19299	 23.50	
  5.104	 66.290	  4.93218	  2.84108	  2.16511	  3.20909	  1.87372	 -0.00252	  4.96338	710.16602	 23.50	
  5.094	 47.331	  4.94097	  3.06113	  1.97129	  3.06282	  1.99957	 -0.00101	  4.97084	710.24200	 23.60	
  5.089	 28.397	  4.94553	  3.21898	  1.83353	  2.85943	  2.18254	  0.00160	  4.97465	710.30701	 23.50	
  5.096	  9.576	  4.94109	  3.29863	  1.75642	  2.61292	  2.40620	  0.00028	  4.97173	710.23297	 23.50	
  5.096	 -9.576	  4.94038	  3.29056	  1.75971	  2.35775	  2.66108	  0.00081	  4.97040	710.16498	 23.50	
  5.089	-28.397	  4.94407	  3.20111	  1.83876	  2.13452	  2.90038	 -0.00316	  4.97534	710.17700	 23.60	
  5.094	-47.331	  4.93961	  3.03220	  1.97954	  1.94633	  3.10681	 -0.01054	  4.96860	710.17200	 23.50	
  5.104	-66.290	  4.94033	  2.81274	  2.17905	  1.82025	  3.25725	 -0.01775	  4.97054	710.09003	 23.60	
  5.093	-85.207	  4.93800	  2.56180	  2.41753	  1.76691	  3.32319	 -0.02090	  4.96929	710.12402	 23.60	
  5.105	-104.191	  4.94801	  2.31616	  2.67757	  1.79049	  3.31017	 -0.01515	  4.97471	710.12402	 23.60	
  5.095	-123.033	  4.94132	  2.09551	  2.90746	  1.88641	  3.19920	 -0.00835	  4.96852	710.05902	 23.60	
  5.109	-142.013	  4.94993	  1.92707	  3.11168	  2.05436	  3.02281	  0.00217	  4.97532	710.11200	 23.60	
  5.099	-161.165	  4.93487	  1.81848	  3.22586	  2.26413	  2.78267	  0.00507	  4.96187	710.25598	 23.60	
  5.100	180.000	  4.94858	  1.79537	  3.27660	  2.51495	  2.54544	  0.00505	  4.97703	710.17102	 23.60	
  6.800	180.000	  4.89573	  1.48978	  3.50424	  2.46589	  2.49180	 -0.01952	  4.96093	710.08398	 23.60	
  6.796	-166.229	  4.89795	  1.51397	  3.47895	  2.22696	  2.73956	 -0.02179	  4.96664	710.13098	 23.60	
  6.808	-152.311	  4.89967	  1.58376	  3.38892	  1.99781	  2.97632	 -0.02342	  4.96845	710.16901	 23.60	
  6.795	-138.383	  4.90447	  1.71083	  3.23995	  1.79905	  3.19728	 -0.02579	  4.97238	710.09198	 23.60	
  6.792	-124.591	  4.89854	  1.87892	  3.03994	  1.63774	  3.36842	 -0.03697	  4.96548	710.06702	 23.60	
  6.787	-110.754	  4.90126	  2.08499	  2.81385	  1.53188	  3.49196	 -0.04374	  4.97265	710.10699	 23.60	
  6.800	-96.985	  4.89470	  2.31338	  2.56433	  1.47130	  3.54940	 -0.05432	  4.96677	709.94098	 23.60	
  6.800	-83.015	  4.90067	  2.57437	  2.31426	  1.47135	  3.55324	 -0.05280	  4.97338	709.97498	 23.50	
  6.787	-69.246	  4.89148	  2.81440	  2.07578	  1.51789	  3.48487	 -0.05146	  4.96618	710.02399	 23.50	
  6.792	-55.409	  4.89000	  3.04665	  1.86338	  1.61918	  3.36136	 -0.04286	  4.96710	710.04498	 23.60	
  6.795	-41.617	  4.88529	  3.24291	  1.68691	  1.76731	  3.17990	 -0.03487	  4.96014	710.03900	 23.60	
  6.808	-27.689	  4.89058	  3.40486	  1.55237	  1.96262	  2.96629	 -0.03139	  4.96802	710.07501	 23.60	
  6.796	-13.771	  4.90809	  3.51332	  1.47697	  2.19237	  2.73557	 -0.02645	  4.98206	710.14001	 23.60	
  6.800	  0.000	  4.90441	  3.54928	  1.44585	  2.43102	  2.48652	 -0.02258	  4.98061	710.10699	 23.50	
  6.796	 13.771	  4.90620	  3.52385	  1.46805	  2.68412	  2.24215	 -0.02471	  4.98205	710.07202	 23.50	
  6.808	 27.689	  4.90673	  3.43476	  1.54198	  2.92689	  2.01628	 -0.02857	  4.98062	709.98798	 23.50	
  6.795	 41.617	  4.90743	  3.28605	  1.67611	  3.13971	  1.83161	 -0.02448	  4.98138	710.10101	 23.50	
  6.792	 55.409	  4.90686	  3.09375	  1.84734	  3.32253	  1.67748	 -0.02873	  4.98119	710.07501	 23.50	
  6.787	 69.246	  4.89775	  2.86229	  2.05290	  3.44409	  1.57290	 -0.03331	  4.96984	710.06702	 23.50	
  6.800	 83.015	  4.89429	  2.61905	  2.28433	  3.51269	  1.51943	 -0.03518	  4.96646	709.98901	 23.50	
  6.800	 96.985	  4.88949	  2.36323	  2.53654	  3.51494	  1.52106	 -0.03632	  4.95865	709.93701	 23.50	
  6.787	110.754	  4.92008	  2.14420	  2.79714	  3.47384	  1.58889	 -0.03650	  4.98871	710.14001	 23.50	
  6.792	124.591	  4.90097	  1.92413	  3.01718	  3.34289	  1.68553	 -0.02942	  4.97029	710.04102	 23.50	
  6.795	138.383	  4.90541	  1.74819	  3.21920	  3.17293	  1.84085	 -0.02764	  4.97359	709.92603	 23.50	
  6.808	152.311	  4.90642	  1.61497	  3.37727	  2.96554	  2.03045	 -0.02173	  4.97365	710.18799	 23.50	
  6.796	166.229	  4.91508	  1.53522	  3.48065	  2.73047	  2.25797	 -0.01657	  4.98360	709.96600	 23.50	
  8.491	168.704	  4.84298	  1.21474	  3.70004	  2.67386	  2.18189	 -0.05086	  4.97188	710.05103	 23.50	
  8.502	157.493	  4.86297	  1.28747	  3.63474	  2.93484	  1.95806	 -0.05673	  4.99164	710.02502	 23.50	
  8.494	146.194	  4.85266	  1.40200	  3.49054	  3.16219	  1.74224	 -0.05868	  4.97979	710.07001	 23.50	
  8.495	135.039	  4.84765	  1.55083	  3.31224	  3.36368	  1.56009	 -0.06200	  4.97366	709.96899	 23.50	
  8.487	123.723	  4.85782	  1.74420	  3.10391	  3.54160	  1.41421	 -0.07226	  4.98731	709.98199	 23.50	
  8.492	112.575	  4.84077	  1.94901	  2.86044	  3.65156	  1.30169	 -0.08306	  4.96782	709.96503	 23.50	
  8.510	101.220	  4.83965	  2.18497	  2.60588	  3.72590	  1.23178	 -0.08698	  4.96680	710.09802	 23.50	
  8.500	 90.000	  4.85353	  2.44575	  2.35805	  3.75720	  1.21528	 -0.07649	  4.98419	709.92999	 23.50	
  8.510	 78.780	  4.83410	  2.69129	  2.09513	  3.71133	  1.22526	 -0.07390	  4.96280	709.95398	 23.50	
  8.492	 67.425	  4.83809	  2.94445	  1.85902	  3.63058	  1.29089	 -0.07272	  4.97433	709.96503	 23.50	
  8.487	 56.277	  4.83734	  3.17455	  1.64752	  3.50010	  1.39291	 -0.06582	  4.97391	709.83899	 23.50	
  8.495	 44.961	  4.82770	  3.37547	  1.46144	  3.31503	  1.53705	 -0.05809	  4.96445	709.98199	 23.50	
  8.494	 33.806	  4.83549	  3.54695	  1.31929	  3.10869	  1.72292	 -0.05885	  4.97420	709.96503	 23.50	
  8.502	 22.507	  4.82479	  3.65893	  1.21251	  2.86521	  1.92964	 -0.06475	  4.96126	710.09497	 23.50	
  8.491	 11.296	  4.83841	  3.74088	  1.15207	  2.62245	  2.16723	 -0.06511	  4.97701	709.93500	 23.50	
  8.500	  0.000	  4.82672	  3.75741	  1.13043	  2.35597	  2.41781	 -0.05510	  4.96525	709.92902	 23.50	
  8.491	-11.296	  4.83242	  3.72752	  1.15836	  2.11005	  2.67503	 -0.06058	  4.97090	709.93799	 23.50	
  8.502	-22.507	  4.82544	  3.63891	  1.22303	  1.87171	  2.92047	 -0.06784	  4.96504	709.94098	 23.50	
  8.494	-33.806	  4.83984	  3.51594	  1.34066	  1.66425	  3.16755	 -0.07269	  4.97845	710.00500	 23.50	
  8.495	-44.961	  4.84629	  3.34542	  1.49344	  1.48544	  3.38154	 -0.07272	  4.98640	710.07800	 23.50	
  8.487	-56.277	  4.84430	  3.13024	  1.67727	  1.34067	  3.55106	 -0.08142	  4.98284	709.97198	 23.50	
  8.492	-67.425	  4.83328	  2.88459	  1.88949	  1.23461	  3.66914	 -0.09805	  4.97285	709.98901	 23.50	
  8.510	-78.780	  4.83536	  2.63427	  2.12833	  1.16929	  3.75408	 -0.09683	  4.97016	709.95398	 23.50	
  8.500	-90.000	  4.84057	  2.37565	  2.38453	  1.15299	  3.78246	 -0.09538	  4.97544	709.90997	 23.50	
  8.510	-101.220	  4.84325	  2.12330	  2.64291	  1.17758	  3.75909	 -0.08868	  4.97586	709.98499	 23.50	
  8.492	-112.575	  4.84106	  1.88550	  2.89520	  1.25089	  3.67613	 -0.08221	  4.97329	709.95801	 23.50	
  8.487	-123.723	  4.84467	  1.68299	  3.12923	  1.36615	  3.55116	 -0.06936	  4.97342	709.90997	 23.50	
  8.495	-135.039	  4.85291	  1.50337	  3.34407	  1.51732	  3.38781	 -0.05721	  4.98354	710.11200	 23.50	
  8.494	-146.194	  4.84065	  1.36161	  3.50316	  1.70170	  3.17181	 -0.06041	  4.97007	710.03802	 23.50	
  8.502	-157.493	  4.85720	  1.26158	  3.64323	  1.92941	  2.94382	 -0.06213	  4.98331	709.99902	 23.50	
  8.491	-168.704	  4.84538	  1.20658	  3.70697	  2.16272	  2.68985	 -0.05787	  4.97106	709.94299	 23.50	
  8.500	180.000	  4.84789	  1.19043	  3.73231	  2.41722	  2.43693	 -0.04924	  4.97352	710.13800	 23.50	
 10.200	180.000	  4.77318	  0.88147	  3.94446	  2.35102	  2.36651	 -0.08314	  4.97964	710.05499	 23.50	
 10.191	-170.497	  4.76380	  0.89010	  3.91626	  2.08996	  2.61715	 -0.09336	  4.96894	710.09302	 23.50	
 10.210	-161.034	  4.76329	  0.93290	  3.85319	  1.84171	  2.86992	 -0.10499	  4.96932	710.04498	 23.50	
 10.194	-151.526	  4.76590	  1.02407	  3.74320	  1.61540	  3.12010	 -0.09738	  4.97023	710.09198	 23.50	
 10.190	-142.105	  4.77335	  1.14303	  3.60215	  1.41060	  3.35275	 -0.09028	  4.97999	710.00201	 23.50	
 10.215	-132.646	  4.77613	  1.29567	  3.42059	  1.23433	  3.55318	 -0.09192	  4.98212	710.09302	 23.50	
 10.203	-123.092	  4.76600	  1.47826	  3.19857	  1.08369	  3.71804	 -0.10091	  4.97551	710.01599	 23.50	
 10.192	-113.678	  4.75861	  1.68533	  2.95658	  0.97040	  3.84110	 -0.11501	  4.96950	710.12598	 23.50	
 10.208	-104.249	  4.76432	  1.91907	  2.70942	  0.89026	  3.93940	 -0.12298	  4.97804	710.11798	 23.50	
 10.210	-94.801	  4.75486	  2.16446	  2.44518	  0.84778	  3.97975	 -0.13309	  4.97235	709.96600	 23.50	
 10.210	-85.199	  4.75875	  2.42967	  2.18436	  0.84258	  3.98337	 -0.13839	  4.97984	710.00800	 23.50	
 10.208	-75.751	  4.75657	  2.69111	  1.93168	  0.87590	  3.93474	 -0.13477	  4.97667	710.09198	 23.50	
 10.192	-66.322	  4.75821	  2.94626	  1.69722	  0.94902	  3.84560	 -0.12860	  4.97803	710.08600	 23.50	
 10.203	-56.908	  4.74792	  3.18230	  1.47791	  1.05063	  3.70819	 -0.11902	  4.97039	709.96503	 23.50	
 10.215	-47.354	  4.74931	  3.40658	  1.28289	  1.19210	  3.53885	 -0.11146	  4.97555	709.95398	 23.50	
 10.190	-37.895	  4.74839	  3.58992	  1.12568	  1.36300	  3.33532	 -0.10632	  4.97133	709.97699	 23.50	
 10.194	-28.474	  4.74624	  3.74684	  0.99602	  1.55934	  3.10872	 -0.10559	  4.97238	710.06897	 23.50	
 10.210	-18.966	  4.76278	  3.87717	  0.90262	  1.78993	  2.86939	 -0.09960	  4.98675	710.00598	 23.50	
 10.191	 -9.503	  4.74464	  3.92846	  0.84376	  2.02405	  2.60238	 -0.09654	  4.96319	709.93402	 23.50	
 10.200	  0.000	  4.76911	  3.98156	  0.82493	  2.28987	  2.35778	 -0.08819	  4.99190	709.97998	 23.50	
 10.191	  9.503	  4.74434	  3.93992	  0.83815	  2.53989	  2.08661	 -0.09930	  4.96532	709.94098	 23.50	
 10.210	 18.966	  4.76018	  3.89351	  0.88922	  2.80499	  1.85129	 -0.10469	  4.98207	709.73700	 23.50	
 10.194	 28.474	  4.75360	  3.78226	  0.98019	  3.04982	  1.62900	 -0.10113	  4.97422	709.84998	 23.50	
 10.190	 37.895	  4.76199	  3.64214	  1.10556	  3.28718	  1.42974	 -0.09447	  4.98124	709.84198	 23.50	
 10.215	 47.354	  4.76256	  3.46539	  1.25723	  3.49538	  1.25350	 -0.10175	  4.98207	709.89203	 23.50	
 10.203	 56.908	  4.76128	  3.24903	  1.44682	  3.66477	  1.11707	 -0.10635	  4.97803	709.79401	 23.50	
 10.192	 66.322	  4.76960	  3.01785	  1.66412	  3.80424	  1.01662	 -0.11263	  4.98715	709.89801	 23.50	
 10.208	 75.751	  4.75933	  2.76405	  1.89078	  3.89134	  0.93963	 -0.12217	  4.97026	710.01300	 23.50	
 10.210	 85.199	  4.76365	  2.50856	  2.13987	  3.94617	  0.90356	 -0.12118	  4.97300	709.91998	 23.50	
 10.210	 94.801	  4.77380	  2.24783	  2.41251	  3.95689	  0.91079	 -0.13108	  4.98184	709.85400	 23.50	
 10.208	104.249	  4.76529	  1.99603	  2.66653	  3.91197	  0.94822	 -0.13507	  4.97108	709.88202	 23.50	
 10.192	113.678	  4.76125	  1.76090	  2.91568	  3.82085	  1.02516	 -0.12700	  4.96616	709.86401	 23.50	
 10.203	123.092	  4.77000	  1.54736	  3.16237	  3.70470	  1.13145	 -0.11638	  4.97410	709.83398	 23.50	
 10.215	132.646	  4.77664	  1.35466	  3.38752	  3.54641	  1.27160	 -0.10316	  4.97888	709.76099	 23.50	
 10.190	142.105	  4.77336	  1.19593	  3.57340	  3.34322	  1.44832	 -0.09502	  4.98033	709.67798	 23.50	
 10.194	151.526	  4.77842	  1.06661	  3.73121	  3.12006	  1.64912	 -0.09281	  4.98481	709.71600	 23.50	
 10.210	161.034	  4.76939	  0.96171	  3.84283	  2.87065	  1.86564	 -0.09267	  4.97437	709.86700	 23.50	
 10.191	170.497	  4.76820	  0.90629	  3.91187	  2.61408	  2.10750	 -0.08219	  4.97199	709.78900	 23.50	
 11.899	171.783	  4.67649	  0.59427	  4.10742	  2.53704	  2.02104	 -0.12125	  4.97615	709.92102	 23.50	
 11.890	163.610	  4.67255	  0.65030	  4.03842	  2.79340	  1.77836	 -0.12630	  4.96996	709.88898	 23.50	
 11.889	155.445	  4.67779	  0.73305	  3.94379	  3.04597	  1.55442	 -0.12874	  4.97684	709.87299	 23.50	
 11.909	147.299	  4.67117	  0.84146	  3.80343	  3.28230	  1.33708	 -0.13424	  4.97175	709.79401	 23.50	
 11.902	139.148	  4.67928	  0.98502	  3.63664	  3.50452	  1.15193	 -0.13674	  4.97840	709.82800	 23.50	
 11.894	130.867	  4.67846	  1.15849	  3.43349	  3.69590	  0.99041	 -0.14482	  4.97766	709.91498	 23.50	
 11.897	122.732	  4.68697	  1.34936	  3.21955	  3.86414	  0.85435	 -0.16342	  4.98625	709.90997	 23.50	
 11.903	114.597	  4.67263	  1.56179	  2.96840	  3.98392	  0.74259	 -0.17704	  4.97569	709.83600	 23.50	
 11.893	106.346	  4.67677	  1.79687	  2.71191	  4.07764	  0.66571	 -0.17947	  4.97703	709.89801	 23.50	
 11.892	 98.155	  4.68916	  2.05093	  2.45796	  4.14562	  0.61536	 -0.18204	  4.99388	709.90302	 23.50	
 11.900	 90.000	  4.68031	  2.30411	  2.19123	  4.15337	  0.59502	 -0.17523	  4.98581	709.87903	 23.50	
 11.892	 81.845	  4.67302	  2.56257	  1.93409	  4.12055	  0.61224	 -0.16509	  4.97784	709.85901	 23.50	
 11.893	 73.654	  4.66495	  2.81801	  1.68314	  4.05204	  0.65473	 -0.16019	  4.97606	709.85901	 23.50	
 11.903	 65.403	  4.66764	  3.07269	  1.44897	  3.95409	  0.72820	 -0.15408	  4.98310	709.82300	 23.50	
 11.897	 57.268	  4.66058	  3.30498	  1.23825	  3.81076	  0.83527	 -0.14494	  4.97583	709.94098	 23.50	
 11.894	 49.133	  4.66463	  3.52258	  1.05256	  3.64209	  0.97012	 -0.13829	  4.97948	709.81897	 23.50	
 11.902	 40.852	  4.64885	  3.70410	  0.88370	  3.43234	  1.12967	 -0.13249	  4.96590	709.81598	 23.50	
 11.909	 32.701	  4.66608	  3.88154	  0.75144	  3.22258	  1.32135	 -0.13726	  4.98861	709.74701	 23.50	
 11.889	 24.555	  4.65088	  3.99462	  0.64651	  2.96813	  1.53062	 -0.13894	  4.96860	709.63000	 23.50	
 11.890	 16.390	  4.64616	  4.07907	  0.57011	  2.71189	  1.75773	 -0.13544	  4.96640	709.57397	 23.50	
 11.899	  8.217	  4.65114	  4.13904	  0.52644	  2.45438	  2.00309	 -0.13161	  4.97128	709.73798	 23.50	
 11.900	  0.000	  4.65800	  4.15787	  0.51542	  2.19426	  2.26723	 -0.12401	  4.97900	709.54401	 23.50	
 11.899	 -8.217	  4.64958	  4.12898	  0.52934	  1.93555	  2.52199	 -0.12596	  4.97258	709.66101	 23.50	
 11.890	-16.390	  4.65724	  4.06924	  0.58124	  1.69354	  2.78469	 -0.13145	  4.97782	709.69501	 23.50	
 11.889	-24.555	  4.65571	  3.96701	  0.66568	  1.46284	  3.03923	 -0.13845	  4.97866	709.71301	 23.50	
 11.909	-32.701	  4.65216	  3.82918	  0.77170	  1.25116	  3.27694	 -0.13986	  4.97576	709.70898	 23.50	
 11.902	-40.852	  4.65849	  3.66302	  0.91418	  1.06698	  3.49916	 -0.14295	  4.98408	709.66998	 23.50	
 11.894	-49.133	  4.65151	  3.45431	  1.07970	  0.89893	  3.69540	 -0.14690	  4.97657	709.84198	 23.50	
 11.897	-57.268	  4.65067	  3.22868	  1.27419	  0.76392	  3.85988	 -0.15688	  4.97440	709.73798	 23.50	
 11.903	-65.403	  4.64614	  2.98405	  1.48502	  0.65860	  3.98904	 -0.16291	  4.96974	709.76099	 23.50	
 11.893	-73.654	  4.65119	  2.72864	  1.72427	  0.58732	  4.08732	 -0.16945	  4.96951	709.85602	 23.50	
 11.892	-81.845	  4.65758	  2.46411	  1.97595	  0.54172	  4.14925	 -0.18185	  4.97540	709.77399	 23.50	
 11.900	-90.000	  4.65908	  2.20648	  2.23311	  0.53451	  4.16920	 -0.17513	  4.97523	709.75800	 23.50	
 11.892	-98.155	  4.65584	  1.94813	  2.49263	  0.55417	  4.14360	 -0.16772	  4.96730	709.56403	 23.50	
 11.893	-106.346	  4.65991	  1.70496	  2.75482	  0.60685	  4.08886	 -0.15838	  4.97253	709.54602	 23.50	
 11.903	-114.597	  4.66787	  1.47462	  3.01431	  0.68716	  4.00025	 -0.14914	  4.97840	709.60498	 23.50	
 11.897	-122.732	  4.66597	  1.26718	  3.24980	  0.80030	  3.86480	 -0.13691	  4.97300	709.68402	 23.50	
 11.894	-130.867	  4.67409	  1.08632	  3.47217	  0.94723	  3.70103	 -0.12796	  4.97958	709.66400	 23.50	
 11.902	-139.148	  4.66826	  0.92264	  3.66512	  1.11490	  3.50026	 -0.12774	  4.97163	709.63000	 23.50	
 11.909	-147.299	  4.67273	  0.78887	  3.83394	  1.30654	  3.28793	 -0.13556	  4.97438	709.63000	 23.50	
 11.889	-155.445	  4.66855	  0.69322	  3.95600	  1.52255	  3.04663	 -0.14295	  4.96555	709.63300	 23.50	
 11.890	-163.610	  4.67344	  0.62564	  4.05395	  1.76551	  2.79314	 -0.14026	  4.97048	709.49799	 23.50	
 11.899	-171.783	  4.66715	  0.58306	  4.10253	  2.00799	  2.53452	 -0.13449	  4.96647	709.62799	 23.50	
 11.900	180.000	  4.68317	  0.57633	  4.13386	  2.27487	  2.28349	 -0.12234	  4.97961	709.55402	 23.50	
 13.600	180.000	  4.57091	  0.27057	  4.30634	  2.18258	  2.18790	 -0.16632	  4.98135	709.49500	 23.50	
 13.608	-172.853	  4.56429	  0.27429	  4.28815	  1.92508	  2.43625	 -0.17506	  4.97480	709.56598	 23.50	
 13.611	-165.583	  4.57362	  0.30490	  4.24929	  1.67431	  2.70469	 -0.18079	  4.98897	709.47302	 23.50	
 13.601	-158.353	  4.55128	  0.36672	  4.14542	  1.42613	  2.94774	 -0.18323	  4.96450	709.54602	 23.50	
 13.609	-151.210	  4.56001	  0.45223	  4.03962	  1.20776	  3.19741	 -0.17624	  4.97303	709.60797	 23.50	
 13.611	-143.999	  4.55649	  0.56383	  3.88806	  1.00275	  3.42520	 -0.16597	  4.97045	709.48102	 23.50	
 13.601	-136.825	  4.56501	  0.70346	  3.72074	  0.81971	  3.64822	 -0.15878	  4.98086	709.56000	 23.50	
 13.596	-129.640	  4.55729	  0.86693	  3.51141	  0.65777	  3.83236	 -0.16024	  4.97371	709.45599	 23.50	
