FileType=PCF
NHL=14
Date=03/07/19	14:25:34
Facility=APL
Serial=16071-10
Customer=NASA
NP=6
Mach=0.300000
Calibration=1:1
CalPts=490
TstPts=95
PortNumbering=AP Standard
Units=Torr C m/s kg/m^3 deg mm 
Theta[deg]	Phi[deg]	P1[Torr]	P2[Torr]	P3[Torr]	P4[Torr]	P5[Torr]	P6[Torr]	Pt[Torr]	Ps[Abs,Torr]	Ts[C]	
  0.000	  0.000	 43.16072	 18.25632	 18.43095	 19.03092	 17.10935	  0.94425	 43.06975	710.06000	 40.70	
  1.691	128.401	 43.13684	 16.69488	 19.71916	 20.99042	 15.44275	  0.88323	 43.05814	710.07001	 40.60	
  1.692	 77.194	 43.13562	 18.89922	 17.58399	 21.30632	 15.17241	  0.95662	 43.05607	710.12000	 40.60	
  1.699	 26.182	 43.16218	 20.46315	 16.14943	 19.88554	 16.34823	  0.98649	 43.07593	709.98999	 40.60	
  1.699	-26.182	 43.16013	 20.22111	 16.32051	 17.74933	 18.35632	  0.95793	 43.06661	710.02002	 40.50	
  1.692	-77.194	 43.17012	 18.57211	 18.06357	 16.61645	 19.59309	  0.90489	 43.09105	709.97998	 40.50	
  1.691	-128.401	 43.14343	 16.44651	 20.07806	 17.21088	 18.96142	  0.86190	 43.05573	710.88000	 40.50	
  1.700	180.000	 43.14144	 15.68182	 20.82861	 19.13630	 16.87593	  0.83796	 43.06604	710.10999	 40.50	
  3.400	180.000	 43.04206	 13.48929	 23.13921	 19.12302	 16.52769	  0.66853	 43.06012	710.09003	 40.50	
  3.388	-152.325	 43.08458	 13.86047	 22.81677	 16.87056	 18.90546	  0.68283	 43.06983	710.51001	 40.40	
  3.397	-124.529	 43.08504	 15.08178	 21.40804	 15.28279	 20.86089	  0.70923	 43.04354	710.12000	 40.40	
  3.399	-96.763	 43.10897	 17.04852	 19.21839	 14.40195	 21.89471	  0.74963	 43.05794	710.04999	 40.40	
  3.394	-69.283	 43.10070	 19.38631	 16.89721	 14.52550	 21.75806	  0.80852	 43.04643	710.03998	 40.30	
  3.400	-41.398	 43.09454	 21.40588	 15.13620	 15.53577	 20.56362	  0.87139	 43.03481	710.07001	 40.30	
  3.401	-14.021	 43.08281	 22.66978	 14.00464	 17.26711	 18.49016	  0.92596	 43.04094	710.04999	 40.30	
  3.401	 14.021	 43.05121	 22.87740	 13.77871	 19.62249	 16.30890	  0.95716	 43.03414	710.03998	 40.20	
  3.400	 41.398	 43.01112	 21.91209	 14.55179	 21.77520	 14.42878	  0.94745	 43.03083	710.13000	 40.20	
  3.394	 69.283	 42.98603	 20.02743	 16.07242	 23.26197	 13.03346	  0.89934	 43.01707	710.03998	 40.20	
  3.399	 96.763	 42.97664	 17.73152	 18.23244	 23.71587	 12.61998	  0.83880	 43.03566	710.08002	 40.20	
  3.397	124.529	 42.95598	 15.48205	 20.53744	 23.01430	 13.23572	  0.75629	 43.00585	710.03998	 40.10	
  3.388	152.325	 42.98014	 14.09886	 22.31050	 21.32848	 14.74624	  0.70892	 43.01777	710.00000	 40.10	
  5.099	161.165	 42.74109	 11.55776	 24.62912	 21.31607	 14.21856	  0.45605	 43.02388	710.08002	 40.10	
  5.109	142.013	 42.68520	 12.69298	 23.20557	 23.41109	 12.28666	  0.48878	 42.99644	709.96997	 40.10	
  5.095	123.033	 42.67934	 14.35965	 21.24601	 24.95165	 10.94838	  0.56829	 43.01199	710.02002	 40.00	
  5.105	104.191	 42.67051	 16.30409	 18.91545	 25.76295	 10.25916	  0.62900	 43.00063	710.15997	 40.00	
  5.093	 85.207	 42.68706	 18.76169	 16.54600	 25.73531	 10.23246	  0.68921	 42.99274	710.01001	 40.00	
  5.104	 66.290	 42.70318	 21.08930	 14.58319	 25.01996	 10.88840	  0.76015	 42.99417	710.13000	 40.00	
  5.094	 47.331	 42.72533	 23.05578	 12.89487	 23.52761	 12.24521	  0.81687	 42.99018	710.04999	 40.00	
  5.089	 28.397	 42.76555	 24.41863	 11.74280	 21.44665	 14.13527	  0.84111	 43.00054	710.04999	 40.00	
  5.096	  9.576	 42.79353	 25.01388	 11.22117	 19.11792	 16.21613	  0.83978	 42.97713	710.14001	 39.90	
  5.096	 -9.576	 42.84082	 24.84777	 11.53431	 16.76763	 18.39168	  0.81632	 42.97792	710.03003	 39.90	
  5.089	-28.397	 42.87221	 23.90837	 12.42650	 14.90442	 20.73160	  0.77040	 42.99329	710.02002	 39.90	
  5.094	-47.331	 42.88014	 22.28859	 13.89921	 13.30321	 22.56910	  0.70695	 42.98860	710.03003	 39.90	
  5.104	-66.290	 42.86742	 20.17929	 15.74147	 12.23292	 23.78178	  0.65016	 42.97635	710.08002	 39.90	
  5.093	-85.207	 42.88673	 17.74816	 17.95720	 11.87724	 24.15091	  0.57646	 42.99018	710.04999	 39.80	
  5.105	-104.191	 42.87418	 15.51271	 20.39888	 12.18455	 23.78441	  0.52746	 42.98799	710.12000	 39.80	
  5.095	-123.033	 42.85437	 13.62690	 22.51454	 13.17127	 22.65867	  0.48972	 42.99261	710.04999	 39.80	
  5.109	-142.013	 42.80286	 12.10865	 24.15013	 14.74267	 20.82956	  0.46042	 42.96524	709.96997	 39.80	
  5.099	-161.165	 42.75319	 11.20846	 25.09186	 16.66709	 18.45707	  0.44094	 42.94934	710.07001	 39.80	
  5.100	180.000	 42.72389	 11.04012	 25.25097	 18.99982	 16.15285	  0.42981	 42.97151	710.03998	 39.80	
  6.800	180.000	 42.36234	  8.56521	 27.26297	 18.79733	 15.71806	  0.13179	 42.97536	710.01001	 39.70	
  6.796	-166.229	 42.39082	  8.68455	 27.21480	 16.57639	 17.77881	  0.14503	 42.95929	710.03998	 39.70	
  6.808	-152.311	 42.43657	  9.22896	 26.61668	 14.53291	 20.17228	  0.15559	 42.97277	710.12000	 39.70	
  6.795	-138.383	 42.48083	 10.31311	 25.44156	 12.69188	 22.34335	  0.17003	 42.97208	710.79999	 39.60	
  6.792	-124.591	 42.50337	 11.76195	 23.85183	 11.27858	 24.03068	  0.17139	 42.96604	710.58002	 39.60	
  6.787	-110.754	 42.52153	 13.62021	 21.83003	 10.23946	 25.28794	  0.22736	 42.96562	709.97998	 39.60	
  6.800	-96.985	 42.53120	 15.62321	 19.55129	  9.58842	 26.03112	  0.24142	 42.95242	710.31000	 39.60	
  6.800	-83.015	 42.57924	 17.79166	 17.20560	  9.49760	 26.23106	  0.29888	 42.97441	710.81000	 39.60	
  6.787	-69.246	 42.56703	 20.13735	 15.20142	  9.89121	 25.83623	  0.35656	 42.96500	710.67999	 39.60	
  6.792	-55.409	 42.55015	 22.31993	 13.26817	 10.61739	 24.90506	  0.39961	 42.94809	710.67999	 39.60	
  6.795	-41.617	 42.54465	 24.19528	 11.58375	 11.81193	 23.48700	  0.43236	 42.97134	710.70001	 39.50	
  6.808	-27.689	 42.50648	 25.67722	 10.21642	 13.43866	 21.55688	  0.52388	 42.94547	710.57001	 39.50	
  6.796	-13.771	 42.49725	 26.62192	  9.32854	 15.34641	 19.29206	  0.53278	 42.95700	709.95001	 39.50	
  6.800	  0.000	 42.44655	 27.10360	  8.85402	 17.30752	 17.09433	  0.62470	 42.94762	710.00000	 39.50	
  6.796	 13.771	 42.38327	 26.93732	  8.85514	 19.57636	 15.02574	  0.50725	 42.92814	709.97998	 39.50	
  6.808	 27.689	 42.35258	 26.28941	  9.33876	 21.91342	 12.92713	  0.63724	 42.95502	710.19000	 39.50	
  6.795	 41.617	 42.31516	 25.05728	 10.34511	 23.98298	 11.05493	  0.57886	 42.95344	710.76001	 39.40	
  6.792	 55.409	 42.26669	 23.32438	 11.75071	 25.65849	  9.56533	  0.42856	 42.92855	710.76001	 39.40	
  6.787	 69.246	 42.23540	 21.25626	 13.53995	 26.91712	  8.44052	  0.48943	 42.93892	710.79999	 39.40	
  6.800	 83.015	 42.21239	 18.99002	 15.48006	 27.65774	  7.78968	  0.45786	 42.94551	710.72998	 39.40	
  6.800	 96.985	 42.19015	 16.64074	 17.57475	 27.83881	  7.66311	  0.39256	 42.94154	710.73999	 39.30	
  6.787	110.754	 42.16493	 14.64437	 19.91250	 27.42220	  8.02623	  0.34801	 42.91533	710.82001	 39.30	
  6.792	124.591	 42.17897	 12.72080	 22.13642	 26.51481	  8.80973	  0.29396	 42.91637	710.73999	 39.30	
  6.795	138.383	 42.21340	 11.07960	 24.06188	 25.12917	 10.01781	  0.15468	 42.92966	710.75000	 39.30	
  6.808	152.311	 42.23178	  9.72966	 25.67068	 23.24187	 11.66429	  0.04647	 42.93312	710.78998	 39.30	
  6.796	166.229	 42.26715	  8.91935	 26.72631	 21.04226	 13.64500	  0.15594	 42.91979	710.77002	 39.30	
  8.491	168.704	 41.75359	  6.36514	 28.70835	 20.74510	 12.95489	 -0.30637	 42.94260	710.67999	 39.30	
  8.502	157.493	 41.69056	  7.02036	 27.74119	 23.02941	 10.90686	 -0.36350	 42.92733	710.78003	 39.30	
  8.494	146.194	 41.65006	  8.10833	 26.38247	 25.08297	  9.09802	 -0.33718	 42.92627	710.70001	 39.20	
  8.495	135.039	 41.61420	  9.53658	 24.66592	 26.79466	  7.61373	 -0.10535	 42.89796	710.71002	 39.20	
  8.487	123.723	 41.58942	 11.22519	 22.62800	 28.13895	  6.39429	 -0.25375	 42.90757	710.77002	 39.20	
  8.492	112.575	 41.59479	 13.16340	 20.39919	 29.06943	  5.60596	 -0.06502	 42.91450	710.71002	 39.20	
  8.510	101.220	 41.59458	 15.29223	 17.97673	 29.62870	  5.13720	 -0.20929	 42.92251	710.70001	 39.20	
  8.500	 90.000	 41.59861	 17.40537	 15.82704	 29.67784	  5.08161	 -0.17181	 42.91796	710.65002	 39.10	
  8.510	 78.780	 41.60888	 19.76428	 13.72961	 29.27651	  5.39428	 -0.11834	 42.90948	710.81000	 39.10	
  8.492	 67.425	 41.66616	 22.12031	 11.75900	 28.40254	  6.17876	  0.14410	 42.93348	710.70001	 39.10	
  8.487	 56.277	 41.70367	 24.18965	 10.04728	 27.11328	  7.32480	  0.01919	 42.92813	710.70001	 39.10	
  8.495	 44.961	 41.73312	 25.96371	  8.57631	 25.42755	  8.81700	  0.25220	 42.91268	710.78003	 39.10	
  8.494	 33.806	 41.76507	 27.35567	  7.43260	 23.49923	 10.48321	  0.32096	 42.93452	710.71997	 39.10	
  8.502	 22.507	 41.78489	 28.33974	  6.68506	 21.24009	 12.45530	  0.17106	 42.89616	710.76001	 39.10	
  8.491	 11.296	 41.84746	 28.86010	  6.33178	 18.88060	 14.63823	  0.15176	 42.89987	710.79999	 39.10	
  8.500	  0.000	 41.89241	 28.95343	  6.39754	 16.63929	 16.81327	  0.32278	 42.90726	710.71002	 39.00	
  8.491	-11.296	 41.95016	 28.56345	  6.79292	 14.62753	 18.95450	  0.11473	 42.90866	710.73999	 39.00	
  8.502	-22.507	 41.97780	 27.77295	  7.52176	 12.62665	 21.33728	  0.17758	 42.91322	710.75000	 39.00	
  8.494	-33.806	 42.00393	 26.50228	  8.66064	 10.86010	 23.49256	  0.01265	 42.91138	710.70001	 39.00	
  8.495	-44.961	 42.02943	 24.86351	 10.12335	  9.46615	 25.21690	  0.10763	 42.90260	710.69000	 39.00	
  8.487	-56.277	 42.05020	 22.89427	 11.87382	  8.27715	 26.66189	  0.03583	 42.90515	710.65002	 39.00	
  8.492	-67.425	 42.03975	 20.66573	 13.80250	  7.46199	 27.59312	 -0.12235	 42.88511	710.81000	 39.00	
  8.510	-78.780	 42.04434	 18.22711	 15.84658	  6.99377	 28.14252	 -0.09925	 42.89771	710.65997	 39.00	
  8.500	-90.000	 42.01801	 16.08296	 18.01465	  6.95350	 28.16141	 -0.14947	 42.87624	710.69000	 38.90	
  8.510	-101.220	 42.00811	 13.96288	 20.37501	  7.24425	 27.73322	 -0.20462	 42.89493	710.70001	 38.90	
  8.492	-112.575	 41.97982	 11.91001	 22.69016	  7.99616	 26.84353	 -0.28090	 42.89648	710.78998	 38.90	
  8.487	-123.723	 41.95840	 10.13023	 24.69801	  9.06390	 25.52680	 -0.29351	 42.88644	710.73999	 38.90	
  8.495	-135.039	 41.91985	  8.60128	 26.40397	 10.45759	 23.83450	 -0.17385	 42.89139	710.62000	 38.90	
  8.494	-146.194	 41.89405	  7.42999	 27.71366	 12.14169	 21.81585	 -0.33211	 42.89148	710.71002	 38.90	
  8.502	-157.493	 41.83836	  6.56407	 28.63870	 14.12277	 19.47931	 -0.31295	 42.88681	710.75000	 38.90	
  8.491	-168.704	 41.80202	  6.20935	 29.09406	 16.21487	 17.04130	 -0.37653	 42.87279	710.77002	 38.80	
  8.500	180.000	 41.73690	  6.12361	 29.09291	 18.37023	 15.04676	 -0.40827	 42.85942	710.69000	 38.80	
 10.200	180.000	 41.08999	  3.55702	 30.98587	 17.90134	 14.29282	 -0.85857	 42.88405	710.67999	 38.80	
 10.191	-170.497	 41.11835	  3.59176	 30.99997	 15.78117	 16.46828	 -0.80170	 42.86650	710.67999	 38.80	
 10.210	-161.034	 41.17044	  3.96019	 30.62528	 13.65490	 18.64457	 -0.73673	 42.88128	710.87000	 38.80	
 10.194	-151.526	 41.21096	  4.61432	 29.80224	 11.61534	 21.06547	 -0.70904	 42.88294	710.64001	 38.80	
 10.190	-142.105	 41.25105	  5.55268	 28.67573	  9.80372	 23.25543	 -0.72791	 42.87662	710.59998	 38.80	
 10.215	-132.646	 41.25690	  6.79377	 27.21755	  8.15176	 25.25048	 -0.57779	 42.86323	710.73999	 38.80	
 10.203	-123.092	 41.28683	  8.33686	 25.43244	  6.77041	 26.93588	 -0.70511	 42.86182	710.65997	 38.80	
 10.192	-113.678	 41.33079	 10.14196	 23.41614	  5.71502	 28.26048	 -0.65870	 42.88279	710.66998	 38.80	
 10.208	-104.249	 41.33244	 12.12954	 21.14389	  4.97709	 29.19814	 -0.66831	 42.85838	710.67999	 38.80	
 10.210	-94.801	 41.37809	 14.26221	 18.75974	  4.53193	 29.82833	 -0.64799	 42.87159	710.76001	 38.80	
 10.210	-85.199	 41.40919	 16.48803	 16.45383	  4.39987	 30.07052	 -0.64610	 42.88122	710.71002	 38.80	
 10.208	-75.751	 41.38282	 18.69619	 14.39727	  4.59047	 29.84531	 -0.60211	 42.83277	710.65997	 38.80	
 10.192	-66.322	 41.40548	 21.07334	 12.29369	  5.08144	 29.22942	 -0.55329	 42.86792	710.77002	 38.80	
 10.203	-56.908	 41.39332	 23.30846	 10.33355	  5.82803	 28.23269	 -0.54052	 42.86774	710.69000	 38.80	
 10.215	-47.354	 41.36588	 25.37493	  8.55391	  6.92799	 26.89057	 -0.33288	 42.85151	710.70001	 38.80	
 10.190	-37.895	 41.35094	 27.15116	  7.03687	  8.33255	 25.16475	 -0.43307	 42.85022	710.04999	 38.80	
 10.194	-28.474	 41.30160	 28.58372	  5.73617	  9.90464	 23.18012	 -0.38376	 42.84564	710.71997	 38.80	
 10.210	-18.966	 41.28675	 29.74961	  4.77325	 11.74812	 20.90528	 -0.33053	 42.86230	710.70001	 38.80	
 10.191	 -9.503	 41.24887	 30.47717	  4.15985	 13.80307	 18.45653	 -0.30193	 42.86192	710.70001	 38.80	
 10.200	  0.000	 41.17550	 30.84292	  3.74953	 15.89926	 16.40615	 -0.21609	 42.84018	710.65002	 38.80	
 10.191	  9.503	 41.13132	 30.78294	  3.72606	 18.01679	 14.14686	 -0.22644	 42.84417	710.72998	 38.70	
 10.210	 18.966	 41.06748	 30.34790	  3.94938	 20.37202	 11.90350	 -0.19797	 42.84438	710.70001	 38.70	
 10.194	 28.474	 41.01515	 29.45449	  4.55586	 22.71060	  9.86512	 -0.22851	 42.83576	710.62000	 38.70	
 10.190	 37.895	 40.98730	 28.25568	  5.45185	 24.86946	  7.99590	 -0.30141	 42.84980	710.62000	 38.70	
 10.215	 47.354	 40.93882	 26.74179	  6.61087	 26.80672	  6.27928	 -0.38145	 42.86418	710.73999	 38.70	
 10.203	 56.908	 40.89069	 24.87005	  8.09703	 28.41831	  4.85713	 -0.39791	 42.84031	710.81000	 38.70	
 10.192	 66.322	 40.84105	 22.75725	  9.82938	 29.70939	  3.81120	 -0.42602	 42.81517	710.88000	 38.70	
 10.208	 75.751	 40.84435	 20.49407	 11.75561	 30.73167	  2.99989	 -0.50643	 42.85926	710.72998	 38.70	
 10.210	 85.199	 40.80434	 18.13875	 13.84381	 31.33232	  2.51794	 -0.57247	 42.83895	710.84998	 38.70	
 10.210	 94.801	 40.80495	 15.89218	 16.04989	 31.54834	  2.36447	 -0.62627	 42.85026	710.71997	 38.70	
 10.208	104.249	 40.78954	 13.70205	 18.28994	 31.30855	  2.58450	 -0.63702	 42.84670	710.70001	 38.70	
 10.192	113.678	 40.80735	 11.62261	 20.65336	 30.69189	  3.09690	 -0.61440	 42.86326	710.72998	 38.70	
 10.203	123.092	 40.81114	  9.66729	 22.91535	 29.71627	  3.85051	 -0.65365	 42.85465	710.82001	 38.70	
 10.215	132.646	 40.81106	  7.87690	 25.04955	 28.35552	  4.96696	 -0.71459	 42.84063	710.71002	 38.60	
 10.190	142.105	 40.86580	  6.43894	 26.86949	 26.69670	  6.42566	 -0.71581	 42.84967	710.75000	 38.70	
 10.194	151.526	 40.88783	  5.21676	 28.39911	 24.77861	  8.07243	 -0.72024	 42.83356	710.81000	 38.60	
 10.210	161.034	 40.94300	  4.32788	 29.65084	 22.62445	  9.96439	 -0.75668	 42.84771	710.78003	 38.60	
 10.191	170.497	 40.98861	  3.81666	 30.49409	 20.27456	 12.07544	 -0.80347	 42.83744	710.78003	 38.60	
 11.899	171.783	 40.16508	  1.21780	 32.29431	 19.67815	 11.16145	 -1.21128	 42.84103	710.67999	 38.60	
 11.890	163.610	 40.10508	  1.65569	 31.48254	 22.02547	  9.06816	 -1.16450	 42.82447	710.73999	 38.60	
 11.889	155.445	 40.05772	  2.43098	 30.34724	 24.27125	  7.12763	 -1.13715	 42.82928	710.71997	 38.60	
 11.909	147.299	 39.99458	  3.39958	 28.93360	 26.33000	  5.31519	 -1.14800	 42.82547	710.76001	 38.60	
 11.902	139.148	 39.97256	  4.65325	 27.25328	 28.18579	  3.74440	 -1.15229	 42.84378	710.78003	 38.60	
 11.894	130.867	 39.94994	  6.21960	 25.31421	 29.78623	  2.44197	 -1.11009	 42.84606	710.65997	 38.60	
 11.897	122.732	 39.93704	  8.04245	 23.15931	 31.10959	  1.43922	 -1.04104	 42.82778	710.71997	 38.60	
 11.903	114.597	 39.92476	  9.95436	 20.87849	 32.16688	  0.65907	 -1.00868	 42.84819	710.72998	 38.60	
 11.893	106.346	 39.90277	 12.03818	 18.48479	 32.85932	  0.09380	 -1.05071	 42.81516	710.70001	 38.60	
 11.892	 98.155	 39.92287	 14.24281	 16.22887	 33.23438	 -0.29082	 -1.04926	 42.83548	710.69000	 38.60	
 11.900	 90.000	 39.93108	 16.45780	 14.02192	 33.20839	 -0.33697	 -1.01795	 42.83522	710.76001	 38.60	
 11.892	 81.845	 39.97182	 18.66707	 11.92041	 32.83203	  0.04966	 -0.96753	 42.85409	710.69000	 38.50	
 11.893	 73.654	 39.98021	 21.01500	  9.86419	 32.06800	  0.63056	 -0.89287	 42.82658	710.73999	 38.50	
 11.903	 65.403	 40.01041	 23.32559	  7.91696	 30.97800	  1.46651	 -0.83134	 42.83285	710.75000	 38.50	
 11.897	 57.268	 40.02566	 25.43367	  6.19023	 29.59409	  2.55941	 -0.82518	 42.81500	710.71002	 38.50	
 11.894	 49.133	 40.05225	 27.31708	  4.66511	 28.02217	  3.81634	 -0.81584	 42.82000	710.71002	 38.50	
 11.902	 40.852	 40.08799	 29.02204	  3.43435	 26.15522	  5.44885	 -0.73859	 42.83213	710.72998	 38.50	
 11.909	 32.701	 40.12687	 30.37388	  2.44662	 24.05788	  7.21999	 -0.65526	 42.81480	710.79999	 38.50	
 11.889	 24.555	 40.19286	 31.45563	  1.78793	 21.78420	  9.23558	 -0.59219	 42.82304	710.78003	 38.50	
 11.890	 16.390	 40.23272	 32.20195	  1.26047	 19.41979	 11.34819	 -0.60336	 42.81464	710.78003	 38.50	
 11.899	  8.217	 40.29092	 32.57970	  1.05159	 17.16182	 13.59372	 -0.65971	 42.83268	710.72998	 38.50	
 11.900	  0.000	 40.34149	 32.60746	  1.13961	 15.03749	 15.88098	 -0.68342	 42.82215	710.71002	 38.50	
 11.899	 -8.217	 40.41077	 32.27501	  1.49255	 12.89384	 18.06493	 -0.71199	 42.83069	710.77002	 38.50	
 11.890	-16.390	 40.45029	 31.55909	  2.10004	 10.83810	 20.33864	 -0.72695	 42.80653	710.64001	 38.50	
 11.889	-24.555	 40.49254	 30.51452	  2.94285	  8.91362	 22.71065	 -0.76145	 42.83074	710.65002	 38.50	
 11.909	-32.701	 40.48811	 29.20960	  3.97528	  7.16945	 24.82294	 -0.80809	 42.79716	710.76001	 38.50	
 11.902	-40.852	 40.52028	 27.59429	  5.29100	  5.65710	 26.72491	 -0.87213	 42.80781	710.78003	 38.50	
 11.894	-49.133	 40.55603	 25.69036	  6.91227	  4.40385	 28.34049	 -0.91950	 42.80508	710.70001	 38.50	
 11.897	-57.268	 40.59411	 23.60651	  8.71661	  3.39001	 29.66466	 -0.92624	 42.81579	710.72998	 38.50	
 11.903	-65.403	 40.59314	 21.35930	 10.65688	  2.62938	 30.73111	 -0.92116	 42.80756	710.70001	 38.40	
 11.893	-73.654	 40.59730	 19.01899	 12.76049	  2.14618	 31.46335	 -0.93823	 42.78876	710.76001	 38.40	
 11.892	-81.845	 40.60669	 16.72141	 14.96288	  1.79527	 31.86161	 -0.97545	 42.81954	710.78998	 38.50	
 11.900	-90.000	 40.57003	 14.51087	 16.99778	  1.82784	 31.81893	 -0.98627	 42.80576	710.66998	 38.40	
 11.892	-98.155	 40.53611	 12.35942	 19.32537	  2.09180	 31.38163	 -1.00211	 42.79463	710.70001	 38.40	
 11.893	-106.346	 40.51271	 10.26618	 21.73006	  2.64778	 30.60460	 -0.98368	 42.80883	710.72998	 38.40	
 11.903	-114.597	 40.47548	  8.24600	 24.01553	  3.38805	 29.48312	 -0.98247	 42.80482	710.70001	 38.40	
 11.897	-122.732	 40.45632	  6.46379	 26.03289	  4.42973	 28.15833	 -1.00910	 42.82737	710.06000	 38.40	
 11.894	-130.867	 40.41525	  4.94022	 27.79976	  5.72367	 26.53795	 -1.05526	 42.80215	710.69000	 38.40	
 11.902	-139.148	 40.40584	  3.60775	 29.41178	  7.28620	 24.58916	 -1.03974	 42.81412	710.73999	 38.40	
 11.909	-147.299	 40.37778	  2.53492	 30.75765	  9.03304	 22.44392	 -1.03296	 42.82676	710.83002	 38.40	
 11.889	-155.445	 40.33805	  1.81373	 31.74332	 10.94729	 20.10854	 -1.05107	 42.80904	710.76001	 38.40	
 11.890	-163.610	 40.29169	  1.26426	 32.44615	 12.99636	 17.66749	 -1.09380	 42.80775	710.20001	 38.40	
 11.899	-171.783	 40.24341	  0.88706	 32.79797	 15.16817	 15.61580	 -1.17681	 42.82610	710.06000	 38.40	
 11.900	180.000	 40.19409	  0.90597	 32.73258	 17.32863	 13.35945	 -1.19633	 42.82814	710.07001	 38.40	
 13.600	180.000	 39.21637	 -1.73194	 34.36018	 16.71025	 12.36140	 -1.50260	 42.81245	710.83002	 38.40	
 13.608	-172.853	 39.25348	 -1.69539	 34.45192	 14.52498	 14.59424	 -1.46536	 42.80703	710.84998	 38.40	
 13.611	-165.583	 39.30307	 -1.47688	 34.20886	 12.31641	 16.88510	 -1.38771	 42.81727	710.78003	 38.40	
 13.601	-158.353	 39.36441	 -0.91435	 33.61030	 10.23358	 19.01125	 -1.31048	 42.81343	710.82001	 38.40	
 13.609	-151.210	 39.41945	 -0.25636	 32.73182	  8.29454	 21.43870	 -1.27009	 42.82768	710.71997	 38.40	
 13.611	-143.999	 39.44987	  0.58786	 31.52919	  6.44271	 23.75748	 -1.26470	 42.81522	710.69000	 38.40	
 13.601	-136.825	 39.48003	  1.70915	 30.06317	  4.79039	 25.84367	 -1.27431	 42.82716	710.73999	 38.40	
 13.596	-129.640	 39.49588	  3.01508	 28.40211	  3.38614	 27.65417	 -1.26010	 42.79986	710.71997	 38.40	
