FileType=PCF
NHL=14
Date=03/07/19	13:12:55
Facility=APL
Serial=16071-10
Customer=NASA
NP=6
Mach=0.450000
Calibration=1:1
CalPts=490
TstPts=95
PortNumbering=AP Standard
Units=Torr C m/s kg/m^3 deg mm 
Theta[deg]	Phi[deg]	P1[Torr]	P2[Torr]	P3[Torr]	P4[Torr]	P5[Torr]	P6[Torr]	Pt[Torr]	Ps[Abs,Torr]	Ts[C]	
  0.000	  0.000	 91.70247	 39.92383	 40.38464	 41.18039	 38.21891	  2.13661	 91.50162	711.14001	 31.30	
  1.691	128.401	 91.71669	 37.08759	 42.93920	 45.13396	 34.12448	  2.03398	 91.55677	711.17999	 31.60	
  1.692	 77.194	 91.75523	 41.18433	 38.84863	 45.74536	 33.51640	  2.18287	 91.57444	711.28003	 31.80	
  1.699	 26.182	 91.81315	 44.32724	 35.87398	 42.94603	 36.31667	  2.19577	 91.62659	711.21002	 32.00	
  1.699	-26.182	 91.85070	 44.08588	 36.24390	 38.76283	 40.58969	  2.14115	 91.64582	711.29999	 32.20	
  1.692	-77.194	 91.88883	 40.64989	 39.70885	 36.49030	 43.02491	  2.02690	 91.69862	711.27002	 32.40	
  1.691	-128.401	 91.91359	 36.63490	 43.71536	 37.71114	 41.76362	  1.91478	 91.71505	711.19000	 32.50	
  1.700	180.000	 91.91184	 35.02898	 45.32038	 41.57056	 37.84523	  1.92392	 91.72860	711.21002	 32.70	
  3.400	180.000	 91.75114	 29.86951	 49.97352	 41.60576	 37.14788	  1.58982	 91.78075	711.25000	 32.90	
  3.388	-152.325	 91.81869	 30.68028	 49.24989	 37.06805	 41.74029	  1.56549	 91.79365	711.27002	 33.00	
  3.397	-124.529	 91.89957	 33.50230	 46.40895	 33.36007	 45.71872	  1.61144	 91.83586	711.21002	 33.20	
  3.399	-96.763	 91.92651	 37.74292	 42.09934	 31.42309	 47.78253	  1.69287	 91.82569	711.15997	 33.40	
  3.394	-69.283	 91.99570	 42.43382	 37.55963	 31.79343	 47.58827	  1.89716	 91.86801	711.08002	 33.50	
  3.400	-41.398	 92.01542	 46.55920	 33.64188	 34.05507	 45.13607	  2.06180	 91.91174	711.13000	 33.70	
  3.401	-14.021	 92.07996	 49.08839	 31.35637	 37.98824	 41.11178	  2.19617	 91.99348	711.28003	 33.80	
  3.401	 14.021	 92.00195	 49.41611	 30.81946	 42.67715	 36.30415	  2.28582	 91.94804	711.21997	 33.90	
  3.400	 41.398	 91.98299	 47.43562	 32.50143	 47.00883	 32.02053	  2.31805	 91.97771	711.28998	 34.10	
  3.394	 69.283	 92.01093	 43.71619	 36.00258	 50.26089	 29.06048	  2.23553	 92.05421	711.23999	 34.20	
  3.399	 96.763	 91.98981	 39.15977	 40.43525	 50.95669	 28.15476	  2.10284	 92.05923	711.26001	 34.40	
  3.397	124.529	 91.99520	 34.68966	 45.02312	 49.51374	 29.45358	  1.94844	 92.07867	711.26001	 34.50	
  3.388	152.325	 92.03645	 31.42488	 48.56047	 46.17321	 32.90073	  1.80029	 92.08732	711.34003	 34.60	
  5.099	161.165	 91.55827	 25.69049	 53.51764	 46.24050	 31.68725	  1.28684	 92.11826	711.37000	 34.80	
  5.109	142.013	 91.53912	 28.19423	 50.55725	 50.54400	 27.45086	  1.41003	 92.13240	711.22998	 34.90	
  5.095	123.033	 91.54385	 32.09903	 46.50481	 53.70461	 24.64752	  1.46918	 92.15289	711.17999	 35.00	
  5.105	104.191	 91.57443	 36.50972	 41.86672	 55.65055	 23.14832	  1.57592	 92.21344	711.22998	 35.10	
  5.093	 85.207	 91.61987	 41.35117	 37.10559	 55.68926	 23.21000	  1.70630	 92.21806	711.41998	 35.30	
  5.104	 66.290	 91.67033	 46.01374	 32.85453	 54.06607	 24.63119	  1.85557	 92.23642	711.29999	 35.40	
  5.094	 47.331	 91.78822	 50.10142	 28.90599	 51.02854	 27.47370	  1.94658	 92.28431	711.29999	 35.50	
  5.089	 28.397	 91.84288	 53.10865	 26.52052	 46.67263	 31.37724	  1.97188	 92.26690	711.29999	 35.60	
  5.096	  9.576	 91.94685	 54.51803	 25.49443	 42.03096	 36.14149	  1.93948	 92.29731	711.28998	 35.70	
  5.096	 -9.576	 92.06129	 54.08805	 25.92332	 37.25483	 41.09354	  1.86099	 92.34401	711.28003	 35.80	
  5.089	-28.397	 92.09791	 51.98433	 27.73447	 32.88771	 45.68074	  1.73386	 92.34701	711.37000	 35.90	
  5.094	-47.331	 92.10517	 48.62271	 31.13673	 29.24508	 49.41340	  1.55163	 92.34304	711.38000	 36.00	
  5.104	-66.290	 92.14956	 44.25971	 35.26271	 26.98041	 52.06647	  1.36092	 92.36930	711.27002	 36.20	
  5.093	-85.207	 92.13153	 39.46426	 39.88717	 26.32718	 53.02399	  1.27107	 92.34245	711.21997	 36.30	
  5.105	-104.191	 92.13360	 34.66372	 44.70493	 27.03201	 52.17669	  1.20008	 92.37605	711.22998	 36.40	
  5.095	-123.033	 92.12785	 30.38637	 49.09571	 29.21713	 49.47386	  1.11096	 92.41866	711.26001	 36.50	
  5.109	-142.013	 92.09796	 27.19293	 52.66648	 32.63260	 45.80875	  1.09657	 92.46348	711.33002	 36.60	
  5.099	-161.165	 92.01357	 25.26235	 54.77497	 37.04691	 41.18450	  1.07859	 92.44188	711.15002	 36.70	
  5.100	180.000	 91.91880	 24.72216	 55.12715	 41.81042	 36.32055	  1.08076	 92.39986	711.20001	 36.80	
  6.800	180.000	 91.18169	 19.58682	 59.53074	 41.42082	 35.12274	  0.44843	 92.44345	711.34998	 36.90	
  6.796	-166.229	 91.28265	 19.85276	 59.42357	 36.78299	 39.88854	  0.47247	 92.46418	711.27002	 36.90	
  6.808	-152.311	 91.36626	 21.16904	 58.12736	 32.20753	 44.60878	  0.44126	 92.50105	711.26001	 37.00	
  6.795	-138.383	 91.39869	 23.46160	 55.51963	 28.38493	 48.85566	  0.43276	 92.43654	711.19000	 37.10	
  6.792	-124.591	 91.52021	 26.54445	 51.96572	 25.28412	 52.71087	  0.43358	 92.49963	711.27002	 37.20	
  6.787	-110.754	 91.57858	 30.42002	 47.71760	 23.00457	 55.64767	  0.52257	 92.47919	711.28003	 37.30	
  6.800	-96.985	 91.64078	 34.85575	 43.23096	 21.54703	 57.37267	  0.54751	 92.53154	711.09998	 37.40	
  6.800	-83.015	 91.63982	 39.59210	 38.43463	 21.17194	 57.72546	  0.59038	 92.48453	711.25000	 37.50	
  6.787	-69.246	 91.74493	 44.37259	 34.10458	 21.98557	 56.89432	  0.74180	 92.58026	711.15002	 37.60	
  6.792	-55.409	 91.65671	 48.79945	 29.48120	 23.68635	 54.74150	  0.83362	 92.49525	711.21997	 37.60	
  6.795	-41.617	 91.73366	 52.72557	 26.02737	 26.32616	 51.42205	  0.97846	 92.60875	711.13000	 37.70	
  6.808	-27.689	 91.65085	 55.92530	 23.27651	 29.82692	 47.43760	  1.14526	 92.54247	711.25000	 37.80	
  6.796	-13.771	 91.63174	 58.03851	 21.34618	 34.17396	 42.90135	  1.28949	 92.58532	711.34003	 37.90	
  6.800	  0.000	 91.59739	 59.09727	 20.45243	 38.70558	 38.19435	  1.36320	 92.63173	711.16998	 37.90	
  6.796	 13.771	 91.49759	 58.85448	 20.57647	 43.42106	 33.28551	  1.44982	 92.61071	711.20001	 38.00	
  6.808	 27.689	 91.31583	 57.37153	 21.59144	 48.01305	 28.76362	  1.45572	 92.54344	711.16998	 38.10	
  6.795	 41.617	 91.30322	 54.71077	 23.64413	 52.28674	 24.86886	  1.41177	 92.61174	711.27002	 38.20	
  6.792	 55.409	 91.27299	 51.03957	 26.61696	 55.90439	 21.79528	  1.36344	 92.62966	711.16998	 38.20	
  6.787	 69.246	 91.23048	 46.78926	 30.38297	 58.63297	 19.52092	  1.28943	 92.65965	711.14001	 38.30	
  6.800	 83.015	 91.14320	 42.20640	 34.79940	 60.26077	 18.07881	  1.14304	 92.64569	711.10999	 38.30	
  6.800	 96.985	 91.11859	 37.34864	 39.43913	 60.59076	 17.79243	  1.03981	 92.62242	711.19000	 38.40	
  6.787	110.754	 91.15227	 32.80986	 44.18265	 59.72425	 18.50977	  0.90521	 92.68475	711.21002	 38.50	
  6.792	124.591	 91.12204	 28.46402	 48.64697	 57.54480	 20.17101	  0.74474	 92.60624	711.04999	 38.50	
  6.795	138.383	 91.14316	 24.94587	 52.66035	 54.53260	 22.68861	  0.63192	 92.61105	711.13000	 38.60	
  6.808	152.311	 91.23045	 22.20714	 56.16914	 50.67186	 26.15207	  0.46576	 92.65330	711.17999	 38.70	
  6.796	166.229	 91.33664	 20.41854	 58.52109	 46.21564	 30.34642	  0.42927	 92.67553	711.23999	 38.70	
  8.491	168.704	 90.24312	 15.20057	 62.62119	 45.71146	 28.81546	 -0.27793	 92.68575	711.09998	 38.80	
  8.502	157.493	 90.15170	 16.62765	 60.60834	 50.34204	 24.51875	 -0.29968	 92.67754	711.09998	 38.80	
  8.494	146.194	 90.06465	 18.89307	 57.67216	 54.61645	 20.76575	 -0.38194	 92.65215	711.21002	 38.80	
  8.495	135.039	 90.04089	 21.80548	 53.93469	 58.34494	 17.75806	 -0.03809	 92.67516	711.25000	 38.90	
  8.487	123.723	 89.99379	 25.39434	 49.70459	 61.29554	 15.43122	  0.04754	 92.66115	711.09003	 39.00	
  8.492	112.575	 90.00697	 29.47454	 45.20547	 63.38597	 13.71973	  0.15614	 92.74771	711.17999	 39.00	
  8.510	101.220	 89.97733	 34.35268	 40.23338	 64.51283	 12.74373	  0.25424	 92.72073	711.15997	 39.10	
  8.500	 90.000	 90.06928	 39.10488	 35.63437	 64.73042	 12.64098	  0.37699	 92.78878	711.19000	 39.10	
  8.510	 78.780	 90.03607	 43.95797	 30.79581	 63.81113	 13.29795	  0.50381	 92.73541	711.16998	 39.10	
  8.492	 67.425	 90.11076	 48.67458	 26.52456	 61.86470	 14.89079	  0.58974	 92.69709	711.19000	 39.20	
  8.487	 56.277	 90.25083	 52.93665	 22.95061	 59.15074	 17.19211	  0.66265	 92.76951	711.22998	 39.30	
  8.495	 44.961	 90.33891	 56.94175	 19.94395	 55.51623	 20.17196	  0.73725	 92.79276	711.14001	 39.30	
  8.494	 33.806	 90.37711	 59.91298	 17.61677	 51.52496	 23.71639	  0.77054	 92.77866	711.20001	 39.40	
  8.502	 22.507	 90.47171	 62.01457	 15.93757	 46.88052	 27.91522	  0.75658	 92.79505	711.13000	 39.50	
  8.491	 11.296	 90.54276	 63.17560	 15.19709	 41.99084	 32.59599	  0.70773	 92.75655	711.15002	 39.50	
  8.500	  0.000	 90.65833	 63.31012	 15.17697	 37.16367	 37.55265	  0.62533	 92.77271	711.15002	 39.60	
  8.491	-11.296	 90.79499	 62.42503	 16.04238	 32.50918	 42.47325	  0.54704	 92.78538	711.28003	 39.70	
  8.502	-22.507	 90.82896	 60.64570	 17.61969	 28.22806	 47.13749	  0.42405	 92.75210	711.28003	 39.70	
  8.494	-33.806	 90.90539	 57.85028	 20.03887	 24.51579	 51.43018	  0.11805	 92.76479	711.13000	 39.80	
  8.495	-44.961	 90.98228	 54.30815	 22.97488	 21.50340	 55.35483	  0.09975	 92.80067	711.15997	 39.80	
  8.487	-56.277	 91.00639	 50.14122	 26.57360	 19.07739	 58.60342	 -0.03653	 92.79176	711.21002	 39.90	
  8.492	-67.425	 91.01842	 45.66954	 30.88966	 17.40342	 60.75602	 -0.13310	 92.80923	711.22998	 39.90	
  8.510	-78.780	 90.93138	 40.75704	 35.44945	 16.40200	 61.86469	 -0.26768	 92.74203	711.16998	 40.00	
  8.500	-90.000	 90.94826	 35.92354	 40.32085	 16.22840	 61.99772	 -0.35746	 92.80738	711.22998	 40.10	
  8.510	-101.220	 90.90723	 31.21459	 45.14767	 16.80638	 61.14097	 -0.36360	 92.80331	711.20001	 40.10	
  8.492	-112.575	 90.90123	 26.86719	 49.84227	 18.43978	 59.18360	 -0.37046	 92.85481	711.16998	 40.10	
  8.487	-123.723	 90.82059	 23.09874	 54.02049	 20.71401	 56.27618	 -0.41174	 92.79726	711.22998	 40.10	
  8.495	-135.039	 90.77177	 19.87613	 57.85066	 23.66417	 52.27680	 -0.43429	 92.81860	711.27002	 40.20	
  8.494	-146.194	 90.74584	 17.38270	 60.78868	 27.38040	 48.13211	 -0.42411	 92.84514	711.34998	 40.20	
  8.502	-157.493	 90.64125	 15.55309	 62.75642	 31.55595	 43.43301	 -0.40461	 92.81235	711.22998	 40.20	
  8.491	-168.704	 90.55722	 14.56071	 63.75500	 36.18575	 38.52867	 -0.46314	 92.81431	711.28003	 40.30	
  8.500	180.000	 90.49529	 14.40680	 63.79030	 41.01082	 33.57459	 -0.41049	 92.85529	711.21997	 40.30	
 10.200	180.000	 89.07963	  9.28314	 67.65701	 40.03251	 31.87987	 -1.53324	 92.84252	711.28003	 40.30	
 10.191	-170.497	 89.14413	  9.40955	 67.66563	 35.21323	 36.90499	 -1.25293	 92.77959	711.25000	 40.40	
 10.210	-161.034	 89.24771	 10.08704	 66.96918	 30.50279	 41.94649	 -1.24165	 92.81807	711.38000	 40.40	
 10.194	-151.526	 89.33031	 11.46334	 65.29378	 26.24080	 46.71840	 -1.44474	 92.83073	711.29999	 40.40	
 10.190	-142.105	 89.44377	 13.63930	 62.84366	 22.39164	 51.18755	 -1.25011	 92.81743	711.34003	 40.40	
 10.215	-132.646	 89.51212	 16.22225	 59.75346	 18.81963	 55.72043	 -1.26149	 92.89130	711.19000	 40.50	
 10.203	-123.092	 89.51741	 19.39149	 55.77044	 15.95122	 59.43975	 -1.36571	 92.84917	711.20001	 40.50	
 10.192	-113.678	 89.61013	 23.16152	 51.42471	 13.91763	 62.26414	 -1.43091	 92.85877	711.31000	 40.60	
 10.208	-104.249	 89.60574	 27.32669	 46.79805	 12.26033	 64.37496	 -1.17914	 92.81348	711.16998	 40.60	
 10.210	-94.801	 89.72203	 31.94110	 41.96736	 11.30415	 65.68382	 -1.17855	 92.87059	711.29999	 40.60	
 10.210	-85.199	 89.76695	 36.93788	 37.00037	 11.08011	 66.09620	 -1.15132	 92.84811	711.17999	 40.70	
 10.208	-75.751	 89.76048	 41.80342	 32.48735	 11.42923	 65.63017	 -1.07794	 92.83122	711.15997	 40.70	
 10.192	-66.322	 89.85735	 46.68203	 27.58110	 12.62052	 64.30511	 -0.99425	 92.92609	711.20001	 40.80	
 10.203	-56.908	 89.82701	 51.28333	 23.43609	 14.36586	 62.10155	 -1.02607	 92.90473	711.19000	 40.80	
 10.215	-47.354	 89.77763	 55.56421	 19.87393	 16.70791	 59.16911	 -0.83955	 92.87659	711.10999	 40.80	
 10.190	-37.895	 89.73793	 59.41311	 16.93453	 19.58171	 55.19693	 -0.84997	 92.85957	711.17999	 40.90	
 10.194	-28.474	 89.70803	 62.57289	 14.40652	 22.73235	 50.91095	 -0.51550	 92.89453	711.21002	 40.90	
 10.210	-18.966	 89.65392	 65.01492	 12.27076	 26.62844	 46.35130	 -0.36556	 92.91681	711.23999	 40.90	
 10.191	 -9.503	 89.53728	 66.60170	 10.77769	 30.93681	 41.48386	 -0.28651	 92.87708	711.15997	 40.90	
 10.200	  0.000	 89.37697	 67.28651	  9.95695	 35.83816	 36.43578	 -0.18462	 92.85462	711.12000	 41.00	
 10.191	  9.503	 89.30191	 67.24750	  9.90821	 40.55539	 31.51091	 -0.14160	 92.89777	711.15002	 41.00	
 10.210	 18.966	 89.15453	 66.38238	 10.50489	 45.41499	 26.76622	 -0.09013	 92.86489	711.29999	 41.10	
 10.194	 28.474	 89.07178	 64.45700	 11.81994	 50.18182	 22.41927	 -0.06481	 92.90603	711.21002	 41.10	
 10.190	 37.895	 88.95467	 61.84163	 13.71400	 54.51479	 18.57287	 -0.07765	 92.84518	711.14001	 41.10	
 10.215	 47.354	 88.87139	 58.62555	 16.05514	 58.85728	 15.19341	 -0.16331	 92.88136	711.15997	 41.10	
 10.203	 56.908	 88.76912	 54.42247	 19.07284	 62.36301	 12.40397	 -0.29008	 92.85298	711.21997	 41.10	
 10.192	 66.322	 88.67381	 50.10969	 22.62149	 65.06989	 10.05848	 -0.32256	 92.82492	711.19000	 41.10	
 10.208	 75.751	 88.58936	 45.45720	 26.66510	 67.20970	  8.18871	 -1.04437	 92.82111	711.17999	 41.20	
 10.210	 85.199	 88.52832	 40.59922	 31.31637	 68.35263	  7.01502	 -0.47809	 92.80636	711.14001	 41.20	
 10.210	 94.801	 88.53963	 35.81952	 36.31222	 68.72820	  6.77228	 -0.54405	 92.85704	711.09998	 41.30	
 10.208	104.249	 88.41166	 30.67538	 41.00807	 68.23320	  7.32979	 -0.70117	 92.75456	711.21002	 41.30	
 10.192	113.678	 88.41030	 26.18682	 45.82679	 66.99907	  8.41844	 -0.80738	 92.72246	711.13000	 41.30	
 10.203	123.092	 88.49762	 22.15176	 50.48361	 64.84557	 10.17056	 -1.55670	 92.76405	711.16998	 41.40	
 10.215	132.646	 88.53173	 18.72939	 54.91125	 61.96068	 12.55496	 -0.99243	 92.76106	711.14001	 41.40	
 10.190	142.105	 88.60081	 15.64992	 58.99996	 58.38549	 15.50351	 -1.49457	 92.73109	711.14001	 41.40	
 10.194	151.526	 88.66608	 13.07776	 62.25960	 54.04535	 18.80884	 -1.44333	 92.72472	711.09998	 41.40	
 10.210	161.034	 88.76367	 11.11504	 64.89359	 49.64891	 22.57354	 -1.29003	 92.74953	711.15002	 41.50	
 10.191	170.497	 88.82688	  9.80515	 66.66601	 44.86689	 26.98877	 -1.26556	 92.67765	711.14001	 41.50	
 11.899	171.783	 87.16213	  4.45821	 70.25236	 43.71431	 25.33393	 -2.25980	 92.69980	711.13000	 41.50	
 11.890	163.610	 87.03263	  5.72856	 68.55400	 48.51466	 20.94767	 -2.76161	 92.66994	711.12000	 41.50	
 11.889	155.445	 86.89838	  7.32158	 66.30418	 53.19427	 17.15243	 -2.58065	 92.64938	711.10999	 41.50	
 11.909	147.299	 86.75243	  9.37076	 63.34885	 57.56215	 13.52025	 -2.60383	 92.61958	711.28003	 41.50	
 11.902	139.148	 86.68254	 12.12726	 59.73367	 61.56767	 10.22482	 -2.02712	 92.61506	711.21002	 41.60	
 11.894	130.867	 86.59451	 15.49767	 55.36452	 64.87833	  7.29912	 -2.44836	 92.56944	711.21997	 41.60	
 11.897	122.732	 86.58681	 19.22069	 50.93925	 67.73605	  4.76445	 -2.47723	 92.57188	711.26001	 41.60	
 11.903	114.597	 86.56670	 23.15482	 46.30738	 69.89102	  3.18251	 -1.86941	 92.62867	711.17999	 41.70	
 11.893	106.346	 86.50863	 27.24988	 41.38376	 71.32497	  2.12405	 -2.44105	 92.58560	711.15997	 41.70	
 11.892	 98.155	 86.53522	 31.95049	 36.70145	 72.10558	  1.47778	 -1.66973	 92.62255	711.09998	 41.80	
 11.900	 90.000	 86.53247	 37.01049	 31.71222	 72.12488	  1.32717	 -1.57734	 92.58669	711.13000	 41.80	
 11.892	 81.845	 86.55145	 41.61498	 26.95141	 71.31886	  1.88044	 -2.25976	 92.57858	711.12000	 41.80	
 11.893	 73.654	 86.61462	 46.52111	 22.71673	 69.70754	  3.02262	 -2.17108	 92.58549	711.16998	 41.90	
 11.903	 65.403	 86.72178	 51.26637	 18.81796	 67.59309	  4.77690	 -1.88144	 92.63689	711.10999	 41.90	
 11.897	 57.268	 86.77170	 55.62110	 15.35774	 64.70842	  7.13920	 -1.97972	 92.60326	711.16998	 41.90	
 11.894	 49.133	 86.85535	 59.88334	 12.23781	 61.40472	 10.23961	 -1.47838	 92.65593	711.17999	 42.00	
 11.902	 40.852	 86.86829	 63.34583	  9.48833	 57.24920	 13.57992	 -1.07092	 92.59798	711.14001	 42.00	
 11.909	 32.701	 86.95074	 66.25420	  6.94854	 52.86813	 17.17575	 -1.18177	 92.57953	711.13000	 42.00	
 11.889	 24.555	 87.06908	 68.30392	  5.29146	 48.22668	 21.14039	 -1.19759	 92.55674	711.17999	 42.00	
 11.890	 16.390	 87.19178	 69.88630	  4.26251	 43.48568	 25.48723	 -1.56499	 92.58472	711.15997	 42.10	
 11.899	  8.217	 87.22895	 70.70667	  3.79155	 38.50378	 30.22235	 -1.15270	 92.49570	711.15002	 42.10	
 11.900	  0.000	 87.45296	 70.79171	  3.97791	 33.61578	 35.08512	 -1.08589	 92.59661	711.23999	 42.10	
 11.899	 -8.217	 87.54403	 70.05470	  4.68383	 29.04058	 40.11784	 -1.30250	 92.55053	711.12000	 42.20	
 11.890	-16.390	 87.63719	 68.50457	  6.30848	 24.61652	 45.14391	 -1.42499	 92.50867	711.13000	 42.20	
 11.889	-24.555	 87.69301	 66.43553	  8.35481	 21.01521	 49.79900	 -1.80300	 92.51678	711.21002	 42.20	
 11.909	-32.701	 87.73357	 63.58113	 10.66171	 17.53933	 54.16419	 -1.91671	 92.51548	711.16998	 42.20	
 11.902	-40.852	 87.76491	 60.23285	 13.42347	 14.23985	 58.58543	 -1.71143	 92.48869	711.16998	 42.30	
 11.894	-49.133	 87.83386	 56.09335	 16.82830	 11.50028	 62.12291	 -1.80622	 92.47898	711.22998	 42.30	
 11.897	-57.268	 87.81244	 51.73393	 20.42751	  9.25518	 64.93861	 -2.21778	 92.43746	711.10999	 42.40	
 11.903	-65.403	 87.77493	 47.07430	 24.41984	  7.52864	 67.13332	 -2.19191	 92.36773	711.10999	 42.40	
 11.893	-73.654	 87.82699	 42.28070	 28.89071	  6.27092	 68.44820	 -2.11785	 92.41431	711.15002	 42.40	
 11.892	-81.845	 87.81893	 37.36739	 33.87035	  5.53001	 69.19036	 -1.95063	 92.41653	711.19000	 42.50	
 11.900	-90.000	 87.76105	 32.42402	 38.24919	  5.49886	 69.12685	 -2.00262	 92.41591	711.15997	 42.50	
 11.892	-98.155	 87.68444	 27.76894	 43.09066	  6.11398	 68.29587	 -2.33313	 92.39962	711.21997	 42.50	
 11.893	-106.346	 87.60960	 23.31598	 47.89097	  7.44054	 66.95259	 -2.09265	 92.40066	711.17999	 42.50	
 11.903	-114.597	 87.55392	 19.27080	 52.55202	  9.27241	 64.71051	 -2.35524	 92.41700	711.19000	 42.60	
 11.897	-122.732	 87.46471	 15.53998	 56.91287	 11.40146	 61.78265	 -2.40260	 92.37830	711.21002	 42.60	
 11.894	-130.867	 87.39816	 12.35359	 60.89564	 14.01110	 58.19569	 -2.07209	 92.34889	711.21002	 42.60	
 11.902	-139.148	 87.36327	  9.65643	 64.29156	 17.17330	 53.82791	 -2.10558	 92.36967	711.20001	 42.60	
 11.909	-147.299	 87.25819	  7.44053	 67.00372	 20.83743	 49.35904	 -2.15177	 92.34737	711.17999	 42.60	
 11.889	-155.445	 87.22004	  5.81420	 68.96634	 24.81508	 44.72472	 -2.09720	 92.36048	711.25000	 42.70	
 11.890	-163.610	 87.07034	  4.58332	 70.36080	 29.14638	 39.80701	 -2.18796	 92.30222	711.16998	 42.70	
 11.899	-171.783	 86.94159	  3.90698	 70.98945	 33.72107	 34.74018	 -2.20016	 92.27702	711.19000	 42.70	
 11.900	180.000	 86.87737	  3.95778	 70.83985	 38.61948	 29.89044	 -2.86806	 92.31590	711.22998	 42.80	
 13.600	180.000	 84.87421	 -1.74167	 74.40717	 37.20935	 27.90034	 -3.57728	 92.35294	711.20001	 42.80	
 13.608	-172.853	 84.94820	 -2.09257	 74.57175	 32.53795	 32.48393	 -3.16011	 92.31379	711.29999	 42.80	
 13.611	-165.583	 85.07990	 -1.61431	 74.13941	 27.87263	 37.57982	 -3.23992	 92.37241	711.21997	 42.90	
 13.601	-158.353	 85.12344	 -0.36528	 72.85222	 23.40941	 42.56880	 -3.09489	 92.28931	711.26001	 42.90	
 13.609	-151.210	 85.22092	  1.32029	 70.98451	 19.39718	 47.34871	 -2.95516	 92.28150	711.29999	 42.90	
 13.611	-143.999	 85.29774	  3.22861	 68.52178	 15.70386	 51.98431	 -3.01134	 92.29910	711.28003	 43.00	
 13.601	-136.825	 85.32853	  5.64092	 65.57413	 12.17868	 56.58547	 -2.89001	 92.26827	711.17999	 43.00	
 13.596	-129.640	 85.37473	  8.36430	 62.14128	  9.03009	 60.68762	 -2.87468	 92.27846	711.19000	 43.00	
