FileType=PCF
NHL=14
Date=03/13/19	14:26:54
Facility=APL
Serial=16071-4
Customer=NASA
NP=6
Mach=0.150000
Calibration=1:1
CalPts=490
TstPts=95
PortNumbering=AP Standard
Units=Torr C m/s kg/m^3 deg mm 
Theta[deg]	Phi[deg]	P1[Torr]	P2[Torr]	P3[Torr]	P4[Torr]	P5[Torr]	P6[Torr]	Pt[Torr]	Ps[Abs,Torr]	Ts[C]	
  0.000	  0.000	 10.86706	  4.99438	  4.43481	  4.91607	  4.50618	  0.25635	 10.86928	710.67999	 28.80	
  1.691	128.401	 10.85855	  4.64041	  4.75276	  5.34391	  4.05928	  0.24522	 10.86368	710.71002	 28.80	
  1.692	 77.194	 10.86397	  5.09576	  4.28064	  5.42623	  3.96460	  0.26705	 10.87272	710.71002	 28.70	
  1.699	 26.182	 10.85689	  5.46538	  3.92214	  5.10229	  4.25857	  0.27198	 10.86743	710.65002	 28.70	
  1.699	-26.182	 10.85711	  5.48034	  3.93012	  4.63134	  4.74678	  0.26277	 10.86490	710.66998	 28.70	
  1.692	-77.194	 10.86292	  5.10669	  4.32177	  4.36580	  5.05308	  0.24313	 10.86626	710.64001	 28.70	
  1.691	-128.401	 10.86270	  4.65280	  4.79014	  4.49796	  4.93403	  0.23028	 10.86839	710.65997	 28.70	
  1.700	180.000	 10.85938	  4.44186	  4.99188	  4.92964	  4.48546	  0.23144	 10.86559	710.69000	 28.70	
  3.400	180.000	 10.85880	  3.89072	  5.54116	  4.91142	  4.44054	  0.18364	 10.86719	710.62000	 28.70	
  3.388	-152.325	 10.85748	  4.01280	  5.41810	  4.41265	  4.96183	  0.17888	 10.86738	710.69000	 28.70	
  3.397	-124.529	 10.85431	  4.34595	  5.05243	  4.01228	  5.39117	  0.18250	 10.86821	710.58002	 28.70	
  3.399	-96.763	 10.84848	  4.81694	  4.54112	  3.80452	  5.60621	  0.19137	 10.86288	710.59998	 28.60	
  3.394	-69.283	 10.84765	  5.33147	  4.02581	  3.83328	  5.54361	  0.20942	 10.86879	710.66998	 28.60	
  3.400	-41.398	 10.83661	  5.78640	  3.57804	  4.10173	  5.19834	  0.23181	 10.86537	710.65002	 28.60	
  3.401	-14.021	 10.82964	  6.04519	  3.32947	  4.53632	  4.72027	  0.25609	 10.87064	710.64001	 28.60	
  3.401	 14.021	 10.82190	  6.04887	  3.30725	  5.04179	  4.19002	  0.27285	 10.86660	710.64001	 28.60	
  3.400	 41.398	 10.81941	  5.78013	  3.52142	  5.54605	  3.73315	  0.26924	 10.86193	710.69000	 28.60	
  3.394	 69.283	 10.82740	  5.32374	  3.91845	  5.89081	  3.43174	  0.26373	 10.86984	710.71997	 28.60	
  3.399	 96.763	 10.83051	  4.80205	  4.45307	  5.97726	  3.37178	  0.22730	 10.86440	710.71002	 28.60	
  3.397	124.529	 10.84111	  4.32804	  4.97651	  5.82358	  3.54747	  0.21958	 10.86360	710.65002	 28.60	
  3.388	152.325	 10.84853	  4.00158	  5.36990	  5.42011	  3.93846	  0.19836	 10.86505	710.67999	 28.60	
  5.099	161.165	 10.80771	  3.35299	  5.95949	  5.38865	  3.83215	  0.10980	 10.86321	710.57001	 28.50	
  5.109	142.013	 10.80116	  3.58765	  5.65099	  5.89838	  3.34980	  0.12852	 10.86680	710.56000	 28.50	
  5.095	123.033	 10.77697	  3.96928	  5.17539	  6.28722	  2.99050	  0.14760	 10.85825	710.65997	 28.50	
  5.105	104.191	 10.76796	  4.45484	  4.62838	  6.50035	  2.79080	  0.16514	 10.86284	710.70001	 28.50	
  5.093	 85.207	 10.75513	  5.00381	  4.05985	  6.51473	  2.76009	  0.18976	 10.86284	710.65997	 28.50	
  5.104	 66.290	 10.74519	  5.54309	  3.53481	  6.35164	  2.87079	  0.22995	 10.86127	710.70001	 28.50	
  5.094	 47.331	 10.74213	  6.03448	  3.12962	  5.99500	  3.16780	  0.21969	 10.86515	710.69000	 28.50	
  5.089	 28.397	 10.74329	  6.40388	  2.83296	  5.50037	  3.59240	  0.24087	 10.86588	710.63000	 28.50	
  5.096	  9.576	 10.74116	  6.59743	  2.68767	  4.95012	  4.09353	  0.23920	 10.85933	710.65997	 28.50	
  5.096	 -9.576	 10.75164	  6.59848	  2.71347	  4.42078	  4.64749	  0.22092	 10.86259	710.71002	 28.50	
  5.089	-28.397	 10.76356	  6.39182	  2.89537	  3.93291	  5.19440	  0.20598	 10.86041	710.71997	 28.40	
  5.094	-47.331	 10.78046	  6.02435	  3.23241	  3.54115	  5.67726	  0.16429	 10.86293	710.72998	 28.40	
  5.104	-66.290	 10.78609	  5.53147	  3.68162	  3.28649	  5.99128	  0.13118	 10.85349	710.65002	 28.40	
  5.093	-85.207	 10.80575	  4.99626	  4.22300	  3.20249	  6.14077	  0.11312	 10.86348	710.56000	 28.40	
  5.105	-104.191	 10.81268	  4.46398	  4.77582	  3.26554	  6.08973	  0.09961	 10.86283	710.65997	 28.40	
  5.095	-123.033	 10.82288	  3.97456	  5.30934	  3.48873	  5.83597	  0.09246	 10.86229	710.59003	 28.40	
  5.109	-142.013	 10.81808	  3.59050	  5.73227	  3.84450	  5.42965	  0.08752	 10.85749	710.63000	 28.40	
  5.099	-161.165	 10.81204	  3.35546	  5.99928	  4.32258	  4.90681	  0.09347	 10.85358	710.63000	 28.40	
  5.100	180.000	 10.81161	  3.27261	  6.08002	  4.85639	  4.35192	  0.09993	 10.85443	710.66998	 28.40	
  6.800	180.000	 10.74034	  2.62780	  6.62385	  4.77116	  4.22800	  0.01924	 10.86010	710.48999	 28.40	
  6.796	-166.229	 10.74723	  2.68379	  6.57418	  4.23233	  4.78296	  0.01032	 10.85970	710.59998	 28.40	
  6.808	-152.311	 10.75187	  2.85539	  6.37921	  3.72507	  5.33460	  0.00940	 10.86064	710.64001	 28.40	
  6.795	-138.383	 10.75036	  3.13745	  6.04680	  3.30113	  5.82138	  0.01046	 10.85977	710.69000	 28.40	
  6.792	-124.591	 10.74932	  3.50790	  5.61394	  2.96561	  6.22313	  0.00734	 10.86194	710.59003	 28.30	
  6.787	-110.754	 10.74090	  3.96150	  5.09823	  2.72257	  6.51389	  0.00675	 10.86016	710.60999	 28.30	
  6.800	-96.985	 10.73046	  4.46504	  4.54463	  2.58106	  6.67393	  0.01485	 10.85911	710.62000	 28.30	
  6.800	-83.015	 10.71737	  5.00739	  3.98730	  2.55889	  6.67823	  0.02466	 10.85921	710.60999	 28.30	
  6.787	-69.246	 10.70276	  5.54503	  3.46904	  2.65701	  6.52888	  0.04224	 10.86034	710.60999	 28.30	
  6.792	-55.409	 10.68493	  6.06156	  2.99241	  2.85396	  6.24852	  0.06186	 10.85779	710.59998	 28.30	
  6.795	-41.617	 10.67063	  6.50486	  2.60492	  3.16039	  5.85169	  0.08503	 10.86025	710.57001	 28.30	
  6.808	-27.689	 10.64735	  6.84868	  2.30630	  3.55088	  5.36845	  0.10734	 10.85925	710.52002	 28.30	
  6.796	-13.771	 10.63507	  7.06612	  2.12903	  4.03376	  4.81866	  0.12722	 10.85754	710.75000	 28.30	
  6.800	  0.000	 10.62564	  7.14291	  2.05409	  4.55520	  4.26643	  0.14924	 10.86137	710.65997	 28.30	
  6.796	 13.771	 10.61717	  7.07626	  2.09062	  5.08793	  3.73568	  0.16442	 10.85816	710.60999	 28.30	
  6.808	 27.689	 10.61622	  6.86611	  2.23407	  5.63197	  3.24069	  0.17239	 10.86347	710.67999	 28.30	
  6.795	 41.617	 10.61806	  6.52485	  2.49253	  6.13551	  2.81894	  0.16821	 10.86305	710.64001	 28.20	
  6.792	 55.409	 10.61899	  6.08313	  2.84248	  6.54267	  2.49268	  0.14947	 10.85891	710.66998	 28.20	
  6.787	 69.246	 10.63196	  5.56710	  3.29511	  6.83868	  2.27390	  0.13994	 10.86020	710.72998	 28.20	
  6.800	 83.015	 10.63477	  5.02351	  3.79683	  7.01734	  2.14495	  0.12794	 10.85745	710.69000	 28.20	
  6.800	 96.985	 10.64984	  4.47635	  4.35124	  7.04795	  2.14354	  0.10126	 10.86357	710.59003	 28.20	
  6.787	110.754	 10.67204	  3.97043	  4.91387	  6.92943	  2.25871	  0.08485	 10.86416	710.63000	 28.20	
  6.792	124.591	 10.68537	  3.50896	  5.44589	  6.68205	  2.46598	  0.07338	 10.86328	710.65002	 28.20	
  6.795	138.383	 10.69403	  3.13584	  5.90366	  6.30527	  2.78153	  0.05764	 10.85510	710.53998	 28.20	
  6.808	152.311	 10.71193	  2.86279	  6.27825	  5.83338	  3.20899	  0.03290	 10.85351	710.59998	 28.20	
  6.796	166.229	 10.73233	  2.69769	  6.52297	  5.30216	  3.71272	  0.02857	 10.85454	710.58002	 28.20	
  8.491	168.704	 10.61231	  2.01862	  7.06286	  5.21224	  3.54400	 -0.07139	 10.86070	710.60999	 28.20	
  8.502	157.493	 10.58877	  2.15035	  6.84808	  5.76494	  3.01793	 -0.06767	 10.85437	710.59003	 28.20	
  8.494	146.194	 10.57961	  2.38902	  6.51955	  6.28974	  2.55877	 -0.05051	 10.85873	710.66998	 28.20	
  8.495	135.039	 10.55791	  2.70396	  6.10126	  6.73199	  2.17182	 -0.02667	 10.85659	710.66998	 28.20	
  8.487	123.723	 10.53445	  3.09271	  5.59932	  7.09973	  1.86365	 -0.01566	 10.84985	710.66998	 28.10	
  8.492	112.575	 10.52033	  3.54968	  5.06303	  7.37038	  1.64148	 -0.01569	 10.85620	710.53003	 28.10	
  8.510	101.220	 10.50096	  4.07113	  4.47943	  7.53345	  1.50488	  0.00132	 10.85949	710.54999	 28.10	
  8.500	 90.000	 10.48958	  4.61890	  3.91086	  7.56195	  1.47107	  0.02787	 10.85954	710.72998	 28.10	
  8.510	 78.780	 10.46913	  5.17851	  3.36300	  7.46888	  1.52556	  0.04006	 10.85334	710.62000	 28.10	
  8.492	 67.425	 10.46458	  5.74536	  2.85008	  7.25287	  1.68080	  0.04506	 10.85786	710.62000	 28.10	
  8.487	 56.277	 10.45708	  6.26343	  2.41484	  6.93338	  1.91020	  0.05894	 10.85763	710.45001	 28.10	
  8.495	 44.961	 10.45502	  6.73198	  2.04433	  6.52621	  2.22453	  0.08267	 10.86215	710.66998	 28.10	
  8.494	 33.806	 10.44698	  7.11192	  1.75527	  6.04874	  2.60381	  0.08766	 10.85720	710.57001	 28.10	
  8.502	 22.507	 10.45056	  7.40728	  1.54602	  5.50617	  3.07065	  0.08102	 10.85766	710.71002	 28.10	
  8.491	 11.296	 10.45141	  7.58223	  1.43578	  4.94022	  3.58868	  0.07282	 10.85670	710.48999	 28.10	
  8.500	  0.000	 10.45856	  7.64231	  1.40665	  4.38699	  4.13330	  0.06819	 10.85351	710.48999	 28.10	
  8.491	-11.296	 10.47352	  7.57765	  1.47065	  3.84386	  4.71322	  0.04908	 10.85646	710.48999	 28.10	
  8.502	-22.507	 10.48581	  7.39232	  1.62404	  3.34098	  5.27990	  0.01816	 10.85822	710.58002	 28.10	
  8.494	-33.806	 10.50563	  7.09119	  1.87245	  2.91155	  5.81241	  0.00334	 10.85791	710.59998	 28.00	
  8.495	-44.961	 10.52521	  6.70096	  2.19812	  2.54304	  6.28628	 -0.01695	 10.85820	710.57001	 28.00	
  8.487	-56.277	 10.54379	  6.22615	  2.60201	  2.24911	  6.68302	 -0.03556	 10.85320	710.54999	 28.00	
  8.492	-67.425	 10.56465	  5.70975	  3.06868	  2.04443	  6.97781	 -0.05991	 10.86078	710.58002	 28.00	
  8.510	-78.780	 10.57596	  5.14347	  3.60111	  1.91881	  7.16730	 -0.07724	 10.85621	710.53003	 28.00	
  8.500	-90.000	 10.59049	  4.58113	  4.15867	  1.89676	  7.21933	 -0.07858	 10.85509	710.53998	 28.00	
  8.510	-101.220	 10.59858	  4.03941	  4.72610	  1.95675	  7.15170	 -0.09091	 10.85285	710.62000	 28.00	
  8.492	-112.575	 10.61389	  3.52435	  5.30217	  2.12556	  6.94946	 -0.10169	 10.85382	710.64001	 28.00	
  8.487	-123.723	 10.62191	  3.08074	  5.81843	  2.36968	  6.64411	 -0.09771	 10.85290	710.63000	 28.00	
  8.495	-135.039	 10.62675	  2.69021	  6.28729	  2.70189	  6.23862	 -0.08685	 10.84843	710.64001	 28.00	
  8.494	-146.194	 10.62609	  2.38460	  6.66328	  3.10010	  5.76284	 -0.08698	 10.84919	710.56000	 28.00	
  8.502	-157.493	 10.62399	  2.15199	  6.94460	  3.56583	  5.23112	 -0.08838	 10.84794	710.59998	 28.00	
  8.491	-168.704	 10.62602	  2.01999	  7.10804	  4.09508	  4.66481	 -0.08227	 10.85136	710.63000	 27.90	
  8.500	180.000	 10.61167	  1.96894	  7.14716	  4.65087	  4.08435	 -0.07489	 10.84969	710.56000	 27.90	
 10.200	180.000	 10.45489	  1.32618	  7.63981	  4.52027	  3.92603	 -0.17315	 10.85165	710.59003	 27.90	
 10.191	-170.497	 10.46881	  1.36498	  7.61219	  3.95501	  4.51068	 -0.17957	 10.85339	710.52002	 27.90	
 10.210	-161.034	 10.46807	  1.47367	  7.47847	  3.41294	  5.09322	 -0.18480	 10.84807	710.64001	 27.90	
 10.194	-151.526	 10.47520	  1.66496	  7.23943	  2.92925	  5.64985	 -0.18099	 10.85159	710.52002	 27.90	
 10.190	-142.105	 10.47519	  1.92315	  6.91183	  2.48062	  6.17551	 -0.17691	 10.85039	710.53998	 27.90	
 10.215	-132.646	 10.46306	  2.25182	  6.48721	  2.08738	  6.64544	 -0.18487	 10.84540	710.48999	 27.90	
 10.203	-123.092	 10.46375	  2.65360	  6.00194	  1.77081	  7.06013	 -0.19432	 10.85464	710.51001	 27.90	
 10.192	-113.678	 10.45425	  3.10549	  5.46699	  1.54055	  7.35918	 -0.19472	 10.85508	710.63000	 27.90	
 10.208	-104.249	 10.44328	  3.60048	  4.90149	  1.37156	  7.57696	 -0.18280	 10.85470	710.58002	 27.90	
 10.210	-94.801	 10.42956	  4.14240	  4.31338	  1.27368	  7.68902	 -0.17571	 10.85060	710.57001	 27.90	
 10.210	-85.199	 10.41192	  4.70850	  3.72905	  1.25578	  7.69093	 -0.17619	 10.84827	710.52002	 27.90	
 10.208	-75.751	 10.38953	  5.27253	  3.17688	  1.31518	  7.58466	 -0.17431	 10.84293	710.53998	 27.90	
 10.192	-66.322	 10.37835	  5.83575	  2.65945	  1.44546	  7.38519	 -0.16276	 10.84978	710.71002	 27.90	
 10.203	-56.908	 10.35506	  6.36306	  2.19172	  1.63576	  7.09376	 -0.14305	 10.85266	710.58002	 27.90	
 10.215	-47.354	 10.33351	  6.85591	  1.77731	  1.91363	  6.69306	 -0.13105	 10.85096	710.58002	 27.90	
 10.190	-37.895	 10.31287	  7.28400	  1.43442	  2.27206	  6.21655	 -0.11118	 10.84875	710.51001	 27.80	
 10.194	-28.474	 10.29961	  7.63620	  1.16241	  2.67538	  5.70218	 -0.09414	 10.85631	710.62000	 27.80	
 10.210	-18.966	 10.27688	  7.89614	  0.95166	  3.12986	  5.14569	 -0.07613	 10.85216	710.57001	 27.80	
 10.191	 -9.503	 10.26248	  8.05017	  0.82595	  3.64493	  4.56346	 -0.04885	 10.84774	710.65997	 27.80	
 10.200	  0.000	 10.24665	  8.10573	  0.76972	  4.18961	  3.97702	 -0.02860	 10.84453	710.52002	 27.80	
 10.191	  9.503	 10.24170	  8.05725	  0.78997	  4.75322	  3.42693	 -0.02235	 10.84972	710.67999	 27.80	
 10.210	 18.966	 10.23109	  7.91019	  0.87518	  5.33305	  2.88703	 -0.01625	 10.84701	710.54999	 27.80	
 10.194	 28.474	 10.22934	  7.65004	  1.04420	  5.89481	  2.40102	 -0.00597	 10.85122	710.60999	 27.80	
 10.190	 37.895	 10.23657	  7.31562	  1.28621	  6.41103	  1.99186	 -0.00179	 10.85132	710.58002	 27.80	
 10.215	 47.354	 10.23365	  6.89080	  1.59150	  6.88802	  1.61657	 -0.02093	 10.84810	710.56000	 27.80	
 10.203	 56.908	 10.23997	  6.40076	  1.97123	  7.30089	  1.31923	 -0.04663	 10.84946	710.44000	 27.80	
 10.192	 66.322	 10.24842	  5.87121	  2.41138	  7.62583	  1.09580	 -0.06008	 10.84614	710.52002	 27.80	
 10.208	 75.751	 10.26109	  5.30930	  2.90113	  7.86892	  0.93443	 -0.06742	 10.85258	710.52002	 27.80	
 10.210	 85.199	 10.27459	  4.73737	  3.44111	  8.00601	  0.85215	 -0.07089	 10.85485	710.59003	 27.80	
 10.210	 94.801	 10.27918	  4.15932	  4.01335	  8.02547	  0.84460	 -0.08755	 10.83987	710.53003	 27.80	
 10.208	104.249	 10.30015	  3.61636	  4.60366	  7.95407	  0.91354	 -0.10944	 10.84289	710.58002	 27.80	
 10.192	113.678	 10.32535	  3.11701	  5.17874	  7.77337	  1.06069	 -0.12158	 10.84707	710.56000	 27.80	
 10.203	123.092	 10.34833	  2.66717	  5.73128	  7.50285	  1.27630	 -0.12147	 10.84712	710.63000	 27.80	
 10.215	132.646	 10.36829	  2.26152	  6.25099	  7.13444	  1.56866	 -0.12956	 10.84553	710.54999	 27.70	
 10.190	142.105	 10.38542	  1.93150	  6.70403	  6.68337	  1.93725	 -0.14402	 10.84631	710.53998	 27.70	
 10.194	151.526	 10.40700	  1.66740	  7.08291	  6.20016	  2.35032	 -0.16239	 10.84654	710.50000	 27.70	
 10.210	161.034	 10.41719	  1.47220	  7.36838	  5.64887	  2.83688	 -0.16738	 10.83820	710.44000	 27.70	
 10.191	170.497	 10.44468	  1.37020	  7.55828	  5.08598	  3.37489	 -0.16714	 10.84761	710.58002	 27.70	
 11.899	171.783	 10.24480	  0.73169	  8.02953	  4.92573	  3.18429	 -0.26373	 10.85092	710.50000	 27.70	
 11.890	163.610	 10.22709	  0.83069	  7.85651	  5.50218	  2.65076	 -0.26829	 10.84663	710.47998	 27.70	
 11.889	155.445	 10.20533	  0.98785	  7.59739	  6.06295	  2.15212	 -0.26987	 10.84639	710.56000	 27.70	
 11.909	147.299	 10.18663	  1.20204	  7.26499	  6.58260	  1.70914	 -0.26318	 10.84855	710.51001	 27.70	
 11.902	139.148	 10.16778	  1.47974	  6.84878	  7.07306	  1.31405	 -0.25095	 10.84722	710.64001	 27.70	
 11.894	130.867	 10.14174	  1.82786	  6.36411	  7.50509	  0.96884	 -0.23497	 10.84571	710.64001	 27.70	
 11.897	122.732	 10.12179	  2.22601	  5.83299	  7.86438	  0.68989	 -0.23339	 10.84826	710.58002	 27.70	
 11.903	114.597	 10.10189	  2.67263	  5.28138	  8.14277	  0.48671	 -0.23463	 10.84656	710.48999	 27.70	
 11.893	106.346	 10.08724	  3.17362	  4.69779	  8.34153	  0.34638	 -0.22325	 10.84848	710.47998	 27.70	
 11.892	 98.155	 10.06807	  3.71543	  4.09937	  8.44818	  0.26281	 -0.20363	 10.84585	710.56000	 27.70	
 11.900	 90.000	 10.05645	  4.27068	  3.52298	  8.47122	  0.23299	 -0.18698	 10.85784	710.46997	 27.70	
 11.892	 81.845	 10.03906	  4.83837	  2.97074	  8.38824	  0.27734	 -0.17941	 10.84759	710.50000	 27.70	
 11.893	 73.654	 10.02873	  5.42367	  2.44322	  8.22378	  0.37785	 -0.18315	 10.85471	710.52002	 27.70	
 11.903	 65.403	 10.00810	  5.98686	  1.95053	  7.96701	  0.52803	 -0.17514	 10.84858	710.48999	 27.70	
 11.897	 57.268	  9.99279	  6.51643	  1.52123	  7.63389	  0.74197	 -0.15782	 10.84307	710.47998	 27.70	
 11.894	 49.133	  9.99247	  7.01808	  1.14601	  7.23421	  1.01851	 -0.13357	 10.84978	710.51001	 27.70	
 11.902	 40.852	  9.98869	  7.47205	  0.82651	  6.75414	  1.36451	 -0.10777	 10.84967	710.59003	 27.60	
 11.909	 32.701	  9.98517	  7.84997	  0.56944	  6.23715	  1.75995	 -0.10200	 10.84750	710.50000	 27.60	
 11.889	 24.555	  9.98952	  8.14724	  0.38537	  5.69539	  2.20488	 -0.10952	 10.85129	710.59003	 27.60	
 11.890	 16.390	  9.99514	  8.36516	  0.25411	  5.12081	  2.70490	 -0.11843	 10.84997	710.56000	 27.60	
 11.899	  8.217	  9.99830	  8.49686	  0.17564	  4.53813	  3.24191	 -0.12200	 10.84824	710.51001	 27.60	
 11.900	  0.000	 10.00215	  8.53705	  0.15006	  3.97551	  3.79215	 -0.12873	 10.84874	710.64001	 27.60	
 11.899	 -8.217	 10.01932	  8.49064	  0.19194	  3.42280	  4.38492	 -0.14406	 10.85038	710.52002	 27.60	
 11.890	-16.390	 10.03399	  8.34863	  0.29684	  2.89842	  4.97663	 -0.17413	 10.85303	710.45001	 27.60	
 11.889	-24.555	 10.05027	  8.12490	  0.46054	  2.43045	  5.54206	 -0.19271	 10.85164	710.54999	 27.60	
 11.909	-32.701	 10.06315	  7.82103	  0.68501	  1.99628	  6.09173	 -0.20725	 10.84600	710.51001	 27.60	
 11.902	-40.852	 10.08734	  7.43394	  0.97842	  1.61554	  6.60723	 -0.22019	 10.85256	710.57001	 27.60	
 11.894	-49.133	 10.11021	  6.97022	  1.34598	  1.29470	  7.06540	 -0.23023	 10.85139	710.56000	 27.60	
 11.897	-57.268	 10.13481	  6.47211	  1.76269	  1.04178	  7.44854	 -0.23858	 10.84933	710.44000	 27.60	
 11.903	-65.403	 10.15717	  5.93642	  2.23089	  0.85336	  7.76317	 -0.25151	 10.84880	710.50000	 27.60	
 11.893	-73.654	 10.17733	  5.36986	  2.74985	  0.72429	  7.98949	 -0.25403	 10.84550	710.42999	 27.60	
 11.892	-81.845	 10.19638	  4.79029	  3.29994	  0.64757	  8.12739	 -0.25218	 10.85045	710.52002	 27.60	
 11.900	-90.000	 10.21166	  4.22598	  3.86354	  0.63276	  8.16853	 -0.24633	 10.84984	710.54999	 27.60	
 11.892	-98.155	 10.22557	  3.67660	  4.44108	  0.68086	  8.11330	 -0.25008	 10.84712	710.53998	 27.60	
 11.893	-106.346	 10.23975	  3.14544	  5.03446	  0.79615	  7.96245	 -0.25538	 10.84235	710.34998	 27.60	
 11.903	-114.597	 10.25261	  2.65548	  5.61237	  0.97267	  7.72817	 -0.26350	 10.84537	710.38000	 27.50	
 11.897	-122.732	 10.26762	  2.21279	  6.15555	  1.21346	  7.40892	 -0.26406	 10.85249	710.45001	 27.50	
 11.894	-130.867	 10.27115	  1.81982	  6.64996	  1.50366	  7.01812	 -0.26132	 10.84943	710.51001	 27.50	
 11.902	-139.148	 10.27407	  1.47492	  7.10187	  1.86429	  6.54984	 -0.25523	 10.84735	710.42999	 27.50	
 11.909	-147.299	 10.27651	  1.19504	  7.47472	  2.27771	  6.03512	 -0.26148	 10.85080	710.46002	 27.50	
 11.889	-155.445	 10.27589	  0.98917	  7.75723	  2.74735	  5.47959	 -0.26925	 10.84447	710.47998	 27.50	
 11.890	-163.610	 10.27398	  0.83093	  7.96542	  3.24668	  4.91424	 -0.27170	 10.85072	710.52002	 27.50	
 11.899	-171.783	 10.26504	  0.73642	  8.08337	  3.79028	  4.32379	 -0.27064	 10.84979	710.51001	 27.50	
 11.900	180.000	 10.25987	  0.70135	  8.10507	  4.36110	  3.74086	 -0.26520	 10.85237	710.53998	 27.50	
 13.600	180.000	 10.01551	  0.08259	  8.53846	  4.16483	  3.51756	 -0.34331	 10.84729	710.41998	 27.50	
 13.608	-172.853	 10.02895	  0.10426	  8.53152	  3.60330	  4.09762	 -0.34749	 10.85627	710.48999	 27.50	
 13.611	-165.583	 10.03257	  0.18218	  8.43350	  3.05195	  4.68968	 -0.34128	 10.85217	710.52002	 27.50	
 13.601	-158.353	 10.03640	  0.32080	  8.24140	  2.54474	  5.27053	 -0.33669	 10.84967	710.42999	 27.50	
 13.609	-151.210	 10.03735	  0.50290	  7.98607	  2.06657	  5.84281	 -0.31964	 10.84406	710.44000	 27.50	
 13.611	-143.999	 10.03513	  0.74011	  7.64408	  1.62700	  6.39263	 -0.30706	 10.84030	710.48999	 27.50	
 13.601	-136.825	 10.04251	  1.03344	  7.24704	  1.25201	  6.89357	 -0.30037	 10.85035	710.51001	 27.50	
 13.596	-129.640	 10.03722	  1.36821	  6.78787	  0.91921	  7.34468	 -0.29912	 10.85410	710.46002	 27.50	
