FileType=PCF
NHL=14
Date=03/13/19	13:48:29
Facility=APL
Serial=16071-4
Customer=NASA
NP=6
Mach=0.230000
Calibration=1:1
CalPts=490
TstPts=95
PortNumbering=AP Standard
Units=Torr C m/s kg/m^3 deg mm 
Theta[deg]	Phi[deg]	P1[Torr]	P2[Torr]	P3[Torr]	P4[Torr]	P5[Torr]	P6[Torr]	Pt[Torr]	Ps[Abs,Torr]	Ts[C]	
  0.000	  0.000	 26.00708	 11.86346	 10.49291	 11.76353	 10.67764	  0.60832	 25.97663	710.81000	 32.70	
  1.691	128.401	 25.98375	 10.97683	 11.30445	 12.77201	  9.63665	  0.57977	 25.96609	710.73999	 32.60	
  1.692	 77.194	 25.97377	 12.13735	 10.10657	 12.99875	  9.39947	  0.62754	 25.97299	710.89001	 32.60	
  1.699	 26.182	 25.97798	 13.08792	  9.21941	 12.23979	 10.03310	  0.64539	 25.97074	710.76001	 32.60	
  1.699	-26.182	 25.97927	 13.08494	  9.27337	 11.11406	 11.23503	  0.62679	 25.96229	710.71997	 32.60	
  1.692	-77.194	 25.97688	 12.10394	 10.20787	 10.43841	 11.96787	  0.57918	 25.95894	710.67999	 32.60	
  1.691	-128.401	 25.97780	 10.94874	 11.37803	 10.71220	 11.69684	  0.54155	 25.95461	710.71002	 32.50	
  1.700	180.000	 25.98112	 10.46870	 11.88481	 11.76373	 10.63375	  0.54890	 25.96210	710.76001	 32.50	
  3.400	180.000	 25.94850	  9.08030	 13.25313	 11.71216	 10.51413	  0.44640	 25.94587	710.78003	 32.50	
  3.388	-152.325	 25.96110	  9.35521	 12.96540	 10.48364	 11.79394	  0.43609	 25.95718	710.70001	 32.50	
  3.397	-124.529	 25.96530	 10.16575	 12.07894	  9.49416	 12.80113	  0.44135	 25.95487	710.77002	 32.50	
  3.399	-96.763	 25.96992	 11.35666	 10.80451	  9.05093	 13.30432	  0.45991	 25.96755	710.71002	 32.40	
  3.394	-69.283	 25.93088	 12.66772	  9.51932	  9.09904	 13.14123	  0.49894	 25.93932	710.69000	 32.40	
  3.400	-41.398	 25.93222	 13.81034	  8.45918	  9.76222	 12.38824	  0.55349	 25.96885	710.71002	 32.40	
  3.401	-14.021	 25.89848	 14.46594	  7.81212	 10.83735	 11.22083	  0.60232	 25.96274	710.70001	 32.40	
  3.401	 14.021	 25.87232	 14.50189	  7.73748	 12.09850	  9.88517	  0.63528	 25.95831	710.66998	 32.40	
  3.400	 41.398	 25.88290	 13.83778	  8.30261	 13.29487	  8.81950	  0.63525	 25.97199	710.72998	 32.40	
  3.394	 69.283	 25.88595	 12.69195	  9.30670	 14.14542	  8.10137	  0.60754	 25.96600	710.64001	 32.30	
  3.399	 96.763	 25.89797	 11.38889	 10.56677	 14.37697	  7.93555	  0.56906	 25.95240	710.73999	 32.30	
  3.397	124.529	 25.92652	 10.22860	 11.86555	 13.93446	  8.41031	  0.51638	 25.96465	710.71002	 32.30	
  3.388	152.325	 25.94803	  9.38220	 12.86860	 12.92978	  9.32786	  0.47395	 25.96394	710.71997	 32.30	
  5.099	161.165	 25.85134	  7.86135	 14.26499	 12.88528	  9.05433	  0.31493	 25.96691	710.77002	 32.30	
  5.109	142.013	 25.81321	  8.44071	 13.50013	 14.14324	  7.91249	  0.35907	 25.95404	710.71002	 32.20	
  5.095	123.033	 25.78890	  9.40194	 12.35703	 15.06381	  7.11014	  0.40645	 25.96633	710.73999	 32.20	
  5.105	104.191	 25.74679	 10.56565	 11.02170	 15.59516	  6.62683	  0.44912	 25.95656	710.69000	 32.20	
  5.093	 85.207	 25.71213	 11.88625	  9.66209	 15.63664	  6.46536	  0.49063	 25.95530	710.70001	 32.20	
  5.104	 66.290	 25.68349	 13.25047	  8.40178	 15.21311	  6.77247	  0.51861	 25.95723	710.78998	 32.20	
  5.094	 47.331	 25.66490	 14.43672	  7.38057	 14.35613	  7.46976	  0.57541	 25.95083	710.71997	 32.20	
  5.089	 28.397	 25.65622	 15.31556	  6.63370	 13.17457	  8.47460	  0.56721	 25.93958	710.78003	 32.20	
  5.096	  9.576	 25.68376	 15.81559	  6.27319	 11.88656	  9.70887	  0.57226	 25.95780	710.69000	 32.10	
  5.096	 -9.576	 25.69122	 15.77137	  6.36470	 10.57887	 11.08454	  0.51482	 25.93789	710.72998	 32.10	
  5.089	-28.397	 25.73698	 15.28650	  6.87176	  9.40865	 12.38006	  0.48393	 25.95758	710.70001	 32.10	
  5.094	-47.331	 25.77574	 14.41480	  7.66323	  8.44913	 13.48006	  0.37955	 25.94978	710.76001	 32.10	
  5.104	-66.290	 25.80617	 13.21039	  8.73520	  7.83188	 14.27841	  0.37412	 25.93222	710.72998	 32.10	
  5.093	-85.207	 25.85411	 11.88146	 10.00520	  7.62951	 14.62460	  0.33595	 25.95333	710.59003	 32.10	
  5.105	-104.191	 25.85988	 10.53844	 11.36323	  7.78502	 14.46918	  0.31417	 25.94250	710.73999	 32.10	
  5.095	-123.033	 25.87564	  9.36873	 12.67335	  8.27652	 13.87211	  0.28815	 25.94279	710.70001	 32.00	
  5.109	-142.013	 25.88261	  8.43613	 13.72803	  9.13601	 12.89433	  0.29207	 25.94953	710.71997	 32.00	
  5.099	-161.165	 25.88401	  7.88140	 14.37980	 10.31380	 11.67278	  0.29787	 25.94553	710.71997	 32.00	
  5.100	180.000	 25.86558	  7.67718	 14.57149	 11.59284	 10.31705	  0.30130	 25.95290	710.78003	 32.00	
  6.800	180.000	 25.67235	  6.27923	 15.80553	 11.44080	 10.05811	  0.03628	 25.92509	710.81000	 32.00	
  6.796	-166.229	 25.70363	  6.37598	 15.70891	 10.17186	 11.38789	  0.04927	 25.93440	710.69000	 32.00	
  6.808	-152.311	 25.71543	  6.71928	 15.26284	  8.95756	 12.64337	  0.10302	 25.93782	710.75000	 31.90	
  6.795	-138.383	 25.71435	  7.40092	 14.45706	  7.94119	 13.82099	  0.02327	 25.93997	710.65002	 31.90	
  6.792	-124.591	 25.69269	  8.29085	 13.42806	  7.13000	 14.77348	  0.04966	 25.92842	710.76001	 31.90	
  6.787	-110.754	 25.68929	  9.36804	 12.18793	  6.55469	 15.48394	  0.03530	 25.93709	710.72998	 31.90	
  6.800	-96.985	 25.66600	 10.59068	 10.86690	  6.21004	 15.90062	  0.11312	 25.93925	710.76001	 31.90	
  6.800	-83.015	 25.61609	 11.92686	  9.51093	  6.13157	 15.89208	  0.08832	 25.92881	710.77002	 31.90	
  6.787	-69.246	 25.60204	 13.22270	  8.30789	  6.33471	 15.55861	  0.10762	 25.93621	710.72998	 31.90	
  6.792	-55.409	 25.54855	 14.48019	  7.18270	  6.80513	 14.86155	  0.14159	 25.93230	710.84998	 31.90	
  6.795	-41.617	 25.51518	 15.54724	  6.25630	  7.53712	 13.92266	  0.18930	 25.94455	710.77002	 31.80	
  6.808	-27.689	 25.46495	 16.38726	  5.51302	  8.47847	 12.74802	  0.24781	 25.93323	710.84998	 31.80	
  6.796	-13.771	 25.41675	 16.90577	  4.99189	  9.63777	 11.46908	  0.29477	 25.93325	710.81000	 31.80	
  6.800	  0.000	 25.38829	 17.08893	  4.76791	 10.89324	 10.12796	  0.33105	 25.93323	710.75000	 31.80	
  6.796	 13.771	 25.36634	 16.92172	  4.85656	 12.16669	  8.85224	  0.36697	 25.93437	710.77002	 31.80	
  6.808	 27.689	 25.36324	 16.42409	  5.22164	 13.48290	  7.62868	  0.37555	 25.95272	710.82001	 31.80	
  6.795	 41.617	 25.35761	 15.58683	  5.86512	 14.67743	  6.60665	  0.36428	 25.93752	710.75000	 31.80	
  6.792	 55.409	 25.35748	 14.52232	  6.73751	 15.65763	  5.85126	  0.34674	 25.93182	710.77002	 31.80	
  6.787	 69.246	 25.37989	 13.27942	  7.81076	 16.39226	  5.36388	  0.30541	 25.92838	710.82001	 31.70	
  6.800	 83.015	 25.40054	 11.95089	  9.02682	 16.86466	  5.08860	  0.27658	 25.92967	710.83002	 31.70	
  6.800	 96.985	 25.44957	 10.63903	 10.34491	 16.94991	  5.05851	  0.22453	 25.94528	710.82001	 31.70	
  6.787	110.754	 25.46948	  9.41625	 11.69142	 16.62430	  5.30781	  0.18298	 25.92880	710.82001	 31.70	
  6.792	124.591	 25.51871	  8.34389	 12.96219	 16.00779	  5.80920	  0.15586	 25.92480	710.82001	 31.70	
  6.795	138.383	 25.56149	  7.44885	 14.09357	 15.10825	  6.58713	  0.12418	 25.93292	710.84003	 31.70	
  6.808	152.311	 25.61755	  6.77326	 15.00646	 13.97789	  7.60765	  0.07855	 25.94514	710.90002	 31.70	
  6.796	166.229	 25.64761	  6.38360	 15.59629	 12.69726	  8.80715	  0.10621	 25.93419	710.82001	 31.70	
  8.491	168.704	 25.35577	  4.81361	 16.83934	 12.48241	  8.41838	 -0.17659	 25.92879	710.72998	 31.70	
  8.502	157.493	 25.30600	  5.12369	 16.32823	 13.80354	  7.15918	 -0.16714	 25.92181	710.81000	 31.60	
  8.494	146.194	 25.27139	  5.66781	 15.54256	 15.05528	  6.03130	 -0.13440	 25.92776	710.63000	 31.60	
  8.495	135.039	 25.22777	  6.40706	 14.54303	 16.12209	  5.11224	 -0.09336	 25.93632	710.83002	 31.60	
  8.487	123.723	 25.18138	  7.34957	 13.33971	 17.03587	  4.41623	 -0.05629	 25.93361	710.84003	 31.60	
  8.492	112.575	 25.12334	  8.42927	 12.04645	 17.67106	  3.93843	 -0.04471	 25.92123	710.78998	 31.60	
  8.510	101.220	 25.07834	  9.66822	 10.64756	 18.05980	  3.58315	 -0.02184	 25.93328	710.83002	 31.60	
  8.500	 90.000	 25.03446	 10.98082	  9.27456	 18.19850	  3.45629	  0.02968	 25.91929	710.79999	 31.60	
  8.510	 78.780	 24.99976	 12.34275	  7.96453	 17.98084	  3.59613	  0.06541	 25.92331	710.89001	 31.60	
  8.492	 67.425	 24.98445	 13.70993	  6.72977	 17.39023	  3.90960	  0.07786	 25.94077	710.82001	 31.50	
  8.487	 56.277	 24.96064	 14.95414	  5.66650	 16.60292	  4.41553	  0.10455	 25.93069	710.65002	 31.50	
  8.495	 44.961	 24.94709	 16.08683	  4.74470	 15.61024	  5.13567	  0.15277	 25.92781	710.78003	 31.50	
  8.494	 33.806	 24.93225	 17.00335	  4.05265	 14.45502	  6.06656	  0.16612	 25.91831	710.81000	 31.50	
  8.502	 22.507	 24.95385	 17.72780	  3.56529	 13.16423	  7.20376	  0.15674	 25.94270	710.87000	 31.50	
  8.491	 11.296	 24.96998	 18.14960	  3.27504	 11.82045	  8.47699	  0.15641	 25.94072	710.84003	 31.50	
  8.500	  0.000	 24.98653	 18.28527	  3.19705	 10.50469	  9.81114	  0.12296	 25.93170	710.79999	 31.50	
  8.491	-11.296	 25.02885	 18.11994	  3.43161	  9.20498	 11.21556	  0.08547	 25.93452	710.71002	 31.50	
  8.502	-22.507	 25.07433	 17.69759	  3.85206	  8.01072	 12.53237	  0.02519	 25.94069	710.82001	 31.50	
  8.494	-33.806	 25.11457	 16.96223	  4.44881	  6.95942	 13.79399	 -0.01292	 25.92472	710.87000	 31.50	
  8.495	-44.961	 25.16651	 16.03105	  5.22374	  6.08255	 14.92018	 -0.05050	 25.92625	710.78998	 31.50	
  8.487	-56.277	 25.21765	 14.89391	  6.19466	  5.37745	 15.89198	 -0.10836	 25.93349	710.76001	 31.50	
  8.492	-67.425	 25.25640	 13.63394	  7.33127	  4.95017	 16.63424	 -0.14832	 25.92848	710.81000	 31.40	
  8.510	-78.780	 25.29306	 12.28036	  8.57014	  4.68480	 17.08780	 -0.18837	 25.92115	710.82001	 31.40	
  8.500	-90.000	 25.33770	 10.93898	  9.90310	  4.67515	 17.22923	 -0.14105	 25.91805	710.77002	 31.40	
  8.510	-101.220	 25.36469	  9.63645	 11.26432	  4.82613	 17.05209	 -0.22205	 25.93315	710.79999	 31.40	
  8.492	-112.575	 25.39670	  8.39152	 12.63889	  5.16578	 16.57027	 -0.23503	 25.92933	710.69000	 31.40	
  8.487	-123.723	 25.41778	  7.32904	 13.89857	  5.74387	 15.78842	 -0.22034	 25.93755	710.82001	 31.40	
  8.495	-135.039	 25.42549	  6.41401	 15.01054	  6.54141	 14.80898	 -0.20907	 25.91494	710.84003	 31.40	
  8.494	-146.194	 25.43259	  5.67908	 15.92418	  7.49099	 13.67122	 -0.20405	 25.92274	710.90002	 31.40	
  8.502	-157.493	 25.43073	  5.11397	 16.59507	  8.58473	 12.40275	 -0.21466	 25.93275	710.76001	 31.40	
  8.491	-168.704	 25.40153	  4.76686	 16.97072	  9.83384	 11.09016	 -0.20146	 25.91563	710.78998	 31.40	
  8.500	180.000	 25.37678	  4.67944	 17.07074	 11.17620	  9.72222	 -0.19346	 25.91511	710.82001	 31.40	
 10.200	180.000	 24.99733	  3.09993	 18.23985	 10.85613	  9.31172	 -0.43201	 25.90930	710.82001	 31.40	
 10.191	-170.497	 25.02333	  3.18230	 18.16290	  9.52580	 10.69792	 -0.44079	 25.91534	710.72998	 31.30	
 10.210	-161.034	 25.02892	  3.46111	 17.84738	  8.21002	 12.06698	 -0.45239	 25.90857	710.77002	 31.30	
 10.194	-151.526	 25.07831	  3.92368	 17.30315	  7.04759	 13.38935	 -0.44023	 25.94947	710.90997	 31.30	
 10.190	-142.105	 25.06885	  4.52864	 16.49992	  5.98144	 14.64042	 -0.42871	 25.93001	710.75000	 31.30	
 10.215	-132.646	 25.05197	  5.31543	 15.49840	  5.04206	 15.79613	 -0.44520	 25.92413	710.89001	 31.30	
 10.203	-123.092	 25.02327	  6.26964	 14.31715	  4.28184	 16.78100	 -0.46450	 25.91303	710.78998	 31.30	
 10.192	-113.678	 25.01400	  7.35947	 13.03350	  3.70681	 17.52963	 -0.46181	 25.91692	710.78998	 31.30	
 10.208	-104.249	 24.98469	  8.55357	 11.67839	  3.25412	 18.03718	 -0.44346	 25.91287	710.89001	 31.30	
 10.210	-94.801	 24.93890	  9.86714	 10.25161	  3.06231	 18.38689	 -0.43219	 25.90157	710.85999	 31.30	
 10.210	-85.199	 24.90596	 11.23711	  8.85369	  3.02852	 18.33165	 -0.42481	 25.90837	710.78998	 31.30	
 10.208	-75.751	 24.87298	 12.60574	  7.55192	  3.20111	 18.08995	 -0.41933	 25.91908	710.88000	 31.30	
 10.192	-66.322	 24.83215	 13.95446	  6.30946	  3.51960	 17.59433	 -0.40182	 25.92284	710.97998	 31.20	
 10.203	-56.908	 24.77883	 15.21923	  5.19713	  3.93014	 16.87873	 -0.36117	 25.92168	710.88000	 31.20	
 10.215	-47.354	 24.72187	 16.41352	  4.17249	  4.54055	 15.91861	 -0.32198	 25.92221	710.96002	 31.20	
 10.190	-37.895	 24.66949	 17.43584	  3.32399	  5.37175	 14.76974	 -0.28449	 25.92569	710.85999	 31.20	
 10.194	-28.474	 24.59919	 18.25917	  2.64733	  6.36533	 13.51443	 -0.24578	 25.90714	710.88000	 31.20	
 10.210	-18.966	 24.56614	 18.90078	  2.14169	  7.48016	 12.22476	 -0.20732	 25.92540	711.00000	 31.20	
 10.191	 -9.503	 24.53017	 19.27341	  1.79302	  8.73526	 10.83045	 -0.14941	 25.93047	711.01001	 31.20	
 10.200	  0.000	 24.47413	 19.40915	  1.59699	 10.07721	  9.41215	 -0.09986	 25.91926	711.06000	 31.20	
 10.191	  9.503	 24.46001	 19.27961	  1.66158	 11.41809	  8.06412	 -0.08841	 25.92648	710.90002	 31.20	
 10.210	 18.966	 24.43497	 18.91994	  1.89420	 12.73742	  6.76286	 -0.07560	 25.91922	710.84003	 31.20	
 10.194	 28.474	 24.42916	 18.31015	  2.30533	 14.09711	  5.57803	 -0.07180	 25.92527	710.88000	 31.20	
 10.190	 37.895	 24.43875	 17.48069	  2.89619	 15.32426	  4.61163	 -0.06261	 25.92248	710.81000	 31.20	
 10.215	 47.354	 24.42179	 16.47402	  3.58941	 16.49914	  3.86164	 -0.10095	 25.92601	710.81000	 31.20	
 10.203	 56.908	 24.44035	 15.28314	  4.54607	 17.50586	  3.16275	 -0.15588	 25.92088	710.89001	 31.20	
 10.192	 66.322	 24.45122	 13.98699	  5.60743	 18.28707	  2.62747	 -0.18214	 25.91237	710.96997	 31.20	
 10.208	 75.751	 24.47630	 12.61956	  6.81605	 18.94199	  2.25050	 -0.20439	 25.91749	710.84003	 31.10	
 10.210	 85.199	 24.50832	 11.22495	  8.09712	 19.27255	  2.04092	 -0.20805	 25.92153	710.90002	 31.10	
 10.210	 94.801	 24.54370	  9.85757	  9.46081	 19.33981	  2.02156	 -0.24143	 25.91512	710.96997	 31.10	
 10.208	104.249	 24.59681	  8.57005	 10.87338	 19.12478	  2.22253	 -0.28836	 25.92134	710.96002	 31.10	
 10.192	113.678	 24.64666	  7.38126	 12.27507	 18.70406	  2.60775	 -0.31899	 25.91600	710.84998	 31.10	
 10.203	123.092	 24.69404	  6.27638	 13.62037	 18.00112	  3.08807	 -0.31677	 25.91641	710.90997	 31.10	
 10.215	132.646	 24.76195	  5.27500	 14.89224	 17.12113	  3.76221	 -0.33006	 25.92360	710.85999	 31.10	
 10.190	142.105	 24.83289	  4.52854	 15.99066	 16.02032	  4.48003	 -0.36832	 25.92270	710.83002	 31.10	
 10.194	151.526	 24.86210	  3.89732	 16.87535	 14.84947	  5.47831	 -0.41159	 25.90320	710.90997	 31.10	
 10.210	161.034	 24.91765	  3.44050	 17.58208	 13.56219	  6.67225	 -0.42209	 25.91372	710.98999	 31.10	
 10.191	170.497	 24.96087	  3.19157	 18.02423	 12.17292	  7.96913	 -0.42001	 25.91089	710.87000	 31.10	
 11.899	171.783	 24.48276	  1.60587	 19.16175	 11.81814	  7.46842	 -0.63528	 25.92333	710.94000	 31.10	
 11.890	163.610	 24.43655	  1.85659	 18.74493	 13.20108	  6.15983	 -0.64374	 25.91530	710.98999	 31.10	
 11.889	155.445	 24.38805	  2.21317	 18.11302	 14.53305	  4.91422	 -0.66300	 25.91005	711.00000	 31.10	
 11.909	147.299	 24.32296	  2.66566	 17.32847	 15.78265	  4.03758	 -0.63398	 25.92076	710.97998	 31.10	
 11.902	139.148	 24.26689	  3.36899	 16.31874	 16.94928	  3.14238	 -0.60452	 25.91603	711.06000	 31.10	
 11.894	130.867	 24.21572	  4.22377	 15.13829	 17.99645	  2.34558	 -0.57759	 25.92120	710.96997	 31.00	
 11.897	122.732	 24.15755	  5.17675	 13.85709	 18.87357	  1.68383	 -0.58047	 25.93631	710.89001	 31.00	
 11.903	114.597	 24.09437	  6.27435	 12.49590	 19.54225	  1.21483	 -0.58490	 25.91373	710.90002	 31.00	
 11.893	106.346	 24.04706	  7.48797	 11.08429	 19.99029	  0.88862	 -0.55972	 25.91395	711.00000	 31.00	
 11.892	 98.155	 23.99932	  8.76259	  9.64508	 20.25262	  0.62406	 -0.51124	 25.90548	710.88000	 31.00	
 11.900	 90.000	 23.95948	 10.09172	  8.26542	 20.32561	  0.53626	 -0.47221	 25.92152	710.94000	 31.00	
 11.892	 81.845	 23.93213	 11.47719	  6.94876	 20.10440	  0.69251	 -0.46159	 25.91530	710.88000	 31.00	
 11.893	 73.654	 23.90640	 12.88343	  5.67859	 19.70452	  0.94538	 -0.46558	 25.92926	710.96002	 31.00	
 11.903	 65.403	 23.87160	 14.26298	  4.49425	 19.08347	  1.31251	 -0.44724	 25.92598	710.90997	 31.00	
 11.897	 57.268	 23.84343	 15.55496	  3.43394	 18.28739	  1.81441	 -0.40940	 25.92538	710.90002	 31.00	
 11.894	 49.133	 23.82257	 16.76139	  2.50843	 17.32319	  2.48044	 -0.35434	 25.90762	710.96002	 31.00	
 11.902	 40.852	 23.82518	 17.85773	  1.70935	 16.16202	  3.31236	 -0.30424	 25.91523	710.96002	 31.00	
 11.909	 32.701	 23.81974	 18.76551	  1.09705	 14.92462	  4.23009	 -0.31197	 25.91708	711.01001	 31.00	
 11.889	 24.555	 23.84413	 19.47285	  0.70362	 13.63288	  5.10103	 -0.31690	 25.91989	710.94000	 31.00	
 11.890	 16.390	 23.85280	 19.99979	  0.37661	 12.30940	  6.27628	 -0.32174	 25.91965	711.02002	 31.00	
 11.899	  8.217	 23.87455	 20.32463	  0.16958	 10.91263	  7.62958	 -0.33779	 25.92407	710.95001	 31.00	
 11.900	  0.000	 23.88541	 20.42149	  0.11025	  9.56025	  8.97828	 -0.33939	 25.91463	710.90997	 30.90	
 11.899	 -8.217	 23.92891	 20.30969	  0.25723	  8.22274	 10.39573	 -0.38289	 25.91494	710.87000	 30.90	
 11.890	-16.390	 23.96480	 19.96789	  0.55151	  6.95022	 11.82592	 -0.43091	 25.90651	710.90002	 30.90	
 11.889	-24.555	 24.02042	 19.43654	  0.95902	  5.81299	 13.13121	 -0.47533	 25.90811	710.97998	 30.90	
 11.909	-32.701	 24.07779	 18.71429	  1.52365	  4.70325	 14.46127	 -0.51094	 25.93116	711.02002	 30.90	
 11.902	-40.852	 24.12741	 17.79170	  2.18927	  3.93455	 15.69299	 -0.53224	 25.92336	710.98999	 30.90	
 11.894	-49.133	 24.18448	 16.68422	  3.07815	  3.20447	 16.79914	 -0.54855	 25.92023	711.00000	 30.90	
 11.897	-57.268	 24.24373	 15.46998	  4.09996	  2.61251	 17.74543	 -0.56666	 25.90783	711.03003	 30.90	
 11.903	-65.403	 24.29707	 14.19138	  5.23121	  2.17758	 18.48746	 -0.59929	 25.91845	711.03998	 30.90	
 11.893	-73.654	 24.32655	 12.80287	  6.47269	  1.83995	 19.11402	 -0.60381	 25.90822	711.01001	 30.90	
 11.892	-81.845	 24.38200	 11.39249	  7.80010	  1.61308	 19.44939	 -0.60239	 25.91695	710.97998	 30.90	
 11.900	-90.000	 24.41395	 10.02203	  9.15165	  1.55214	 19.51605	 -0.58468	 25.91384	711.03003	 30.90	
 11.892	-98.155	 24.45301	  8.70708	 10.52711	  1.67796	 19.40337	 -0.58913	 25.91463	711.00000	 30.90	
 11.893	-106.346	 24.50302	  7.43333	 11.96775	  1.99398	 19.07497	 -0.60769	 25.91858	711.03998	 30.90	
 11.903	-114.597	 24.51498	  6.23498	 13.35081	  2.43048	 18.46662	 -0.62457	 25.91227	710.96997	 30.90	
 11.897	-122.732	 24.55268	  5.17333	 14.66163	  3.01120	 17.63338	 -0.63443	 25.91684	711.00000	 30.90	
 11.894	-130.867	 24.57261	  4.21606	 15.86763	  3.66312	 16.69695	 -0.61119	 25.92471	711.09003	 30.80	
 11.902	-139.148	 24.58278	  3.42817	 16.95345	  4.43667	 15.57189	 -0.60999	 25.92435	711.01001	 30.80	
 11.909	-147.299	 24.59210	  2.75013	 17.84014	  5.43893	 14.32948	 -0.62348	 25.92158	711.01001	 30.80	
 11.889	-155.445	 24.60305	  2.24390	 18.53329	  6.60206	 12.99371	 -0.63602	 25.92739	710.94000	 30.80	
 11.890	-163.610	 24.55607	  1.83587	 19.00689	  7.78346	 11.64038	 -0.65459	 25.90379	711.01001	 30.80	
 11.899	-171.783	 24.55292	  1.59444	 19.30367	  9.13005	 10.24064	 -0.64611	 25.92400	710.97998	 30.80	
 11.900	180.000	 24.51157	  1.53529	 19.34590	 10.49331	  8.82191	 -0.63694	 25.91834	711.07001	 30.80	
 13.600	180.000	 23.94145	 -0.01292	 20.37907	 10.03241	  8.27490	 -0.81446	 25.92536	711.02002	 30.80	
 13.608	-172.853	 23.96445	  0.05617	 20.34936	  8.66703	  9.67593	 -0.80975	 25.90693	710.96002	 30.80	
 13.611	-165.583	 23.99798	  0.25554	 20.13369	  7.31633	 11.10927	 -0.81220	 25.93324	710.95001	 30.80	
 13.601	-158.353	 24.02014	  0.62428	 19.69012	  6.08278	 12.49977	 -0.79648	 25.92309	711.09003	 30.80	
 13.609	-151.210	 24.02996	  1.10323	 19.06454	  4.90560	 13.86777	 -0.76267	 25.91565	710.98999	 30.80	
 13.611	-143.999	 24.01516	  1.58923	 18.26344	  3.98814	 15.17824	 -0.71305	 25.91876	710.97998	 30.80	
 13.601	-136.825	 24.02555	  2.29622	 17.29953	  3.10191	 16.38166	 -0.70430	 25.92563	710.96002	 30.80	
 13.596	-129.640	 24.02432	  3.14262	 16.20337	  2.37027	 17.46435	 -0.70175	 25.92831	711.09998	 30.80	
