FileType=PCF
NHL=14
Date=03/13/19	15:03:45
Facility=APL
Serial=16071-4
Customer=NASA
NP=6
Mach=0.080000
Calibration=1:1
CalPts=490
TstPts=95
PortNumbering=AP Standard
Units=Torr C m/s kg/m^3 deg mm 
Theta[deg]	Phi[deg]	P1[Torr]	P2[Torr]	P3[Torr]	P4[Torr]	P5[Torr]	P6[Torr]	Pt[Torr]	Ps[Abs,Torr]	Ts[C]	
  0.000	  0.000	  3.18240	  1.50832	  1.33774	  1.46839	  1.37988	  0.07203	  3.17521	709.84003	 26.30	
  1.691	128.401	  3.18225	  1.41185	  1.42311	  1.57692	  1.26413	  0.06863	  3.17656	709.75000	 26.30	
  1.692	 77.194	  3.18032	  1.52010	  1.29164	  1.58399	  1.23592	  0.07096	  3.17496	709.72998	 26.30	
  1.699	 26.182	  3.17851	  1.62007	  1.19326	  1.50006	  1.30304	  0.07016	  3.17386	709.78003	 26.30	
  1.699	-26.182	  3.17937	  1.61710	  1.20315	  1.38261	  1.42814	  0.06709	  3.17394	709.75000	 26.30	
  1.692	-77.194	  3.18177	  1.51510	  1.30914	  1.31841	  1.51210	  0.06442	  3.17571	709.77002	 26.30	
  1.691	-128.401	  3.18024	  1.41295	  1.42031	  1.35527	  1.48101	  0.06200	  3.17228	709.84003	 26.30	
  1.700	180.000	  3.18268	  1.35957	  1.47977	  1.46679	  1.37400	  0.06276	  3.17652	709.73999	 26.30	
  3.400	180.000	  3.17905	  1.19097	  1.62766	  1.44826	  1.34614	  0.04676	  3.17346	709.71002	 26.30	
  3.388	-152.325	  3.17883	  1.22309	  1.59336	  1.31356	  1.48657	  0.04462	  3.17376	709.75000	 26.30	
  3.397	-124.529	  3.18010	  1.31117	  1.49127	  1.20393	  1.61004	  0.04170	  3.17653	709.84003	 26.30	
  3.399	-96.763	  3.17410	  1.43726	  1.34913	  1.14738	  1.67042	  0.04782	  3.17062	709.60999	 26.30	
  3.394	-69.283	  3.17589	  1.57947	  1.20607	  1.15684	  1.64929	  0.04939	  3.17418	709.71997	 26.30	
  3.400	-41.398	  3.17289	  1.71010	  1.08525	  1.22245	  1.55802	  0.05353	  3.17389	709.70001	 26.20	
  3.401	-14.021	  3.17155	  1.78907	  1.01642	  1.34119	  1.41901	  0.06287	  3.17515	709.81000	 26.20	
  3.401	 14.021	  3.17156	  1.79191	  1.01164	  1.48784	  1.27092	  0.06771	  3.17600	709.82001	 26.20	
  3.400	 41.398	  3.17039	  1.71493	  1.06976	  1.62475	  1.15039	  0.07034	  3.17460	709.81000	 26.20	
  3.394	 69.283	  3.17155	  1.58648	  1.18068	  1.72420	  1.07205	  0.06865	  3.17398	709.79999	 26.20	
  3.399	 96.763	  3.17259	  1.44034	  1.32285	  1.75260	  1.05565	  0.06251	  3.17320	709.71002	 26.20	
  3.397	124.529	  3.17749	  1.30912	  1.47157	  1.70365	  1.10778	  0.05768	  3.17510	709.64001	 26.20	
  3.388	152.325	  3.17805	  1.22161	  1.58063	  1.58905	  1.21032	  0.05072	  3.17365	709.69000	 26.20	
  5.099	161.165	  3.16770	  1.02996	  1.75530	  1.58461	  1.16811	  0.03223	  3.17347	709.73999	 26.20	
  5.109	142.013	  3.16641	  1.09599	  1.66617	  1.73141	  1.03546	  0.03662	  3.17566	709.71002	 26.20	
  5.095	123.033	  3.16070	  1.20164	  1.53271	  1.84233	  0.93898	  0.04166	  3.17409	709.56000	 26.20	
  5.105	104.191	  3.15920	  1.34146	  1.37628	  1.90719	  0.88275	  0.04822	  3.17569	709.63000	 26.20	
  5.093	 85.207	  3.15636	  1.49746	  1.21760	  1.91114	  0.87582	  0.05452	  3.17635	709.65997	 26.20	
  5.104	 66.290	  3.14963	  1.65208	  1.06783	  1.85838	  0.90953	  0.05877	  3.17301	709.56000	 26.20	
  5.094	 47.331	  3.14977	  1.79437	  0.95024	  1.75684	  0.98956	  0.05979	  3.17570	709.64001	 26.20	
  5.089	 28.397	  3.14727	  1.89603	  0.87005	  1.61686	  1.10396	  0.06002	  3.17413	709.75000	 26.20	
  5.096	  9.576	  3.15009	  1.95307	  0.83140	  1.46449	  1.24759	  0.05863	  3.17656	709.60999	 26.20	
  5.096	 -9.576	  3.14634	  1.94869	  0.83436	  1.30563	  1.40508	  0.05188	  3.17175	709.70001	 26.20	
  5.089	-28.397	  3.15064	  1.89061	  0.87998	  1.16717	  1.55932	  0.04463	  3.17193	709.75000	 26.20	
  5.094	-47.331	  3.15702	  1.78658	  0.97096	  1.05846	  1.69582	  0.03391	  3.17491	709.75000	 26.20	
  5.104	-66.290	  3.15665	  1.64160	  1.09679	  0.98650	  1.78919	  0.02903	  3.17049	709.78998	 26.20	
  5.093	-85.207	  3.16260	  1.48413	  1.25295	  0.96278	  1.82898	  0.02439	  3.17143	709.76001	 26.20	
  5.105	-104.191	  3.16416	  1.33095	  1.41312	  0.97811	  1.81728	  0.02207	  3.17235	709.76001	 26.20	
  5.095	-123.033	  3.16794	  1.19809	  1.56494	  1.04173	  1.74336	  0.02197	  3.17373	709.65997	 26.20	
  5.109	-142.013	  3.17013	  1.09393	  1.68972	  1.14231	  1.62765	  0.02435	  3.17305	709.65997	 26.20	
  5.099	-161.165	  3.16949	  1.02764	  1.76720	  1.27869	  1.47435	  0.02508	  3.17411	709.64001	 26.10	
  5.100	180.000	  3.16661	  1.00643	  1.78947	  1.43100	  1.31574	  0.02894	  3.17119	709.69000	 26.10	
  6.800	180.000	  3.14831	  0.81943	  1.94880	  1.40414	  1.28429	  0.00389	  3.17271	709.72998	 26.10	
  6.796	-166.229	  3.14784	  0.83203	  1.93223	  1.24740	  1.44402	 -0.00016	  3.17169	709.62000	 26.10	
  6.808	-152.311	  3.14975	  0.88002	  1.87699	  1.10370	  1.60379	  0.00081	  3.17446	709.58002	 26.10	
  6.795	-138.383	  3.14639	  0.95802	  1.77806	  0.98438	  1.74144	 -0.00229	  3.17033	709.72998	 26.10	
  6.792	-124.591	  3.14673	  1.06302	  1.65561	  0.88999	  1.85816	 -0.00470	  3.17270	709.70001	 26.10	
  6.787	-110.754	  3.14496	  1.19269	  1.50541	  0.82031	  1.94341	 -0.00592	  3.17418	709.69000	 26.10	
  6.800	-96.985	  3.13904	  1.33700	  1.34656	  0.77910	  1.98876	 -0.00240	  3.17135	709.65997	 26.10	
  6.800	-83.015	  3.13706	  1.49355	  1.18673	  0.77474	  1.98896	  0.00041	  3.17350	709.59998	 26.10	
  6.787	-69.246	  3.13217	  1.64821	  1.03598	  0.80080	  1.94558	  0.00367	  3.17345	709.67999	 26.10	
  6.792	-55.409	  3.12574	  1.79783	  0.89848	  0.85647	  1.86122	  0.00730	  3.17224	709.75000	 26.10	
  6.795	-41.617	  3.12311	  1.92495	  0.79062	  0.94269	  1.74936	  0.01722	  3.17361	709.71997	 26.10	
  6.808	-27.689	  3.11593	  2.02417	  0.70549	  1.05595	  1.60553	  0.02308	  3.17137	709.71997	 26.10	
  6.796	-13.771	  3.11328	  2.08590	  0.65741	  1.19288	  1.45059	  0.03035	  3.17176	709.78998	 26.10	
  6.800	  0.000	  3.11449	  2.11131	  0.63860	  1.34579	  1.29298	  0.03878	  3.17510	709.78003	 26.10	
  6.796	 13.771	  3.11134	  2.09048	  0.65162	  1.49842	  1.14373	  0.04331	  3.17171	709.67999	 26.10	
  6.808	 27.689	  3.11164	  2.03203	  0.69315	  1.65623	  1.00178	  0.04506	  3.17346	709.75000	 26.10	
  6.795	 41.617	  3.11219	  1.93278	  0.76769	  1.80055	  0.88209	  0.04668	  3.17219	709.71002	 26.10	
  6.792	 55.409	  3.11438	  1.80855	  0.86780	  1.91879	  0.79016	  0.04448	  3.17409	709.77002	 26.10	
  6.787	 69.246	  3.11649	  1.66162	  0.99215	  2.00509	  0.72615	  0.04029	  3.17273	709.65997	 26.10	
  6.800	 83.015	  3.11786	  1.50385	  1.13760	  2.05331	  0.69259	  0.03747	  3.17024	709.72998	 26.10	
  6.800	 96.985	  3.12422	  1.34628	  1.29622	  2.06411	  0.69109	  0.03106	  3.17322	709.75000	 26.10	
  6.787	110.754	  3.13052	  1.20127	  1.45784	  2.02988	  0.72420	  0.02565	  3.17425	709.75000	 26.10	
  6.792	124.591	  3.13228	  1.06902	  1.60962	  1.95617	  0.78381	  0.02212	  3.17114	709.69000	 26.10	
  6.795	138.383	  3.13611	  0.96487	  1.74145	  1.85118	  0.87190	  0.01780	  3.17091	709.71997	 26.10	
  6.808	152.311	  3.14190	  0.88593	  1.85096	  1.71545	  0.99271	  0.01329	  3.17354	709.76001	 26.10	
  6.796	166.229	  3.14747	  0.83602	  1.92137	  1.56186	  1.13330	  0.00731	  3.17405	709.71997	 26.10	
  8.491	168.704	  3.11260	  0.64466	  2.07841	  1.53498	  1.08911	 -0.01908	  3.17271	709.66998	 26.10	
  8.502	157.493	  3.10755	  0.68497	  2.01532	  1.69661	  0.93874	 -0.01601	  3.17201	709.63000	 26.00	
  8.494	146.194	  3.10329	  0.75039	  1.92102	  1.84640	  0.80638	 -0.01141	  3.17176	709.52002	 26.00	
  8.495	135.039	  3.09933	  0.83889	  1.80209	  1.97525	  0.70042	 -0.00518	  3.17348	709.64001	 26.00	
  8.487	123.723	  3.09290	  0.95230	  1.65683	  2.08127	  0.61307	 -0.00185	  3.17189	709.65002	 26.00	
  8.492	112.575	  3.09125	  1.08298	  1.50442	  2.16159	  0.54997	  0.00197	  3.17551	709.59998	 26.00	
  8.510	101.220	  3.08252	  1.22999	  1.33495	  2.20786	  0.50734	  0.00413	  3.17210	709.53998	 26.00	
  8.500	 90.000	  3.07823	  1.38996	  1.16970	  2.21667	  0.49562	  0.01141	  3.17344	709.65997	 26.00	
  8.510	 78.780	  3.07529	  1.54984	  1.01542	  2.19107	  0.51163	  0.01627	  3.17406	709.65002	 26.00	
  8.492	 67.425	  3.07016	  1.71205	  0.86936	  2.12468	  0.55577	  0.01677	  3.17239	709.73999	 26.00	
  8.487	 56.277	  3.06716	  1.86161	  0.74276	  2.03384	  0.61860	  0.01993	  3.17265	709.71002	 26.00	
  8.495	 44.961	  3.06626	  1.99655	  0.63801	  1.91415	  0.71142	  0.02414	  3.17264	709.66998	 26.00	
  8.494	 33.806	  3.06325	  2.10582	  0.55388	  1.77521	  0.81945	  0.02364	  3.17318	709.64001	 26.00	
  8.502	 22.507	  3.06299	  2.18846	  0.49598	  1.61989	  0.95278	  0.02115	  3.17208	709.69000	 26.00	
  8.491	 11.296	  3.06299	  2.23760	  0.46262	  1.45467	  1.10293	  0.01894	  3.17228	709.65002	 26.00	
  8.500	  0.000	  3.06671	  2.25838	  0.44970	  1.29753	  1.25699	  0.01336	  3.17559	709.53003	 26.00	
  8.491	-11.296	  3.06910	  2.23657	  0.46736	  1.14056	  1.42203	  0.00606	  3.17405	709.59998	 26.00	
  8.502	-22.507	  3.06984	  2.18442	  0.50528	  0.99342	  1.58442	 -0.00340	  3.17352	709.58002	 26.00	
  8.494	-33.806	  3.07570	  2.09622	  0.57577	  0.86920	  1.73769	 -0.00852	  3.17386	709.65997	 26.00	
  8.495	-44.961	  3.08060	  1.98147	  0.66983	  0.76477	  1.87538	 -0.01248	  3.17391	709.66998	 26.00	
  8.487	-56.277	  3.08548	  1.84579	  0.78584	  0.68128	  1.99131	 -0.01975	  3.17347	709.59003	 26.00	
  8.492	-67.425	  3.09148	  1.69528	  0.91984	  0.62417	  2.07553	 -0.02487	  3.17376	709.71997	 26.00	
  8.510	-78.780	  3.09478	  1.53365	  1.07161	  0.58956	  2.13027	 -0.02675	  3.17157	709.71002	 26.00	
  8.500	-90.000	  3.09966	  1.37233	  1.23380	  0.58111	  2.14758	 -0.03008	  3.17240	709.62000	 26.00	
  8.510	-101.220	  3.10259	  1.21508	  1.39839	  0.59918	  2.12839	 -0.03262	  3.17085	709.77002	 26.00	
  8.492	-112.575	  3.10817	  1.06712	  1.56550	  0.64697	  2.07102	 -0.03472	  3.17287	709.77002	 26.00	
  8.487	-123.723	  3.11039	  0.94058	  1.71457	  0.71650	  1.98390	 -0.03341	  3.17288	709.84003	 26.00	
  8.495	-135.039	  3.11564	  0.83208	  1.85071	  0.81334	  1.86666	 -0.03033	  3.17331	709.71002	 26.00	
  8.494	-146.194	  3.11718	  0.74239	  1.96184	  0.92795	  1.72872	 -0.02559	  3.17402	709.77002	 26.00	
  8.502	-157.493	  3.11593	  0.67645	  2.04444	  1.05991	  1.57373	 -0.02841	  3.17204	709.72998	 26.00	
  8.491	-168.704	  3.11553	  0.64207	  2.09018	  1.21247	  1.41053	 -0.02464	  3.17311	709.73999	 25.90	
  8.500	180.000	  3.11433	  0.62673	  2.10339	  1.37230	  1.24506	 -0.02291	  3.17183	709.65997	 26.00	
 10.200	180.000	  3.06956	  0.44158	  2.24824	  1.33589	  1.19847	 -0.05172	  3.17410	709.62000	 26.00	
 10.191	-170.497	  3.07241	  0.45308	  2.23856	  1.17394	  1.36540	 -0.05403	  3.17391	709.71997	 26.00	
 10.210	-161.034	  3.07212	  0.48303	  2.19883	  1.01826	  1.53197	 -0.05385	  3.17325	709.79999	 25.90	
 10.194	-151.526	  3.07028	  0.53601	  2.12770	  0.87598	  1.69421	 -0.05261	  3.17112	709.59003	 26.00	
 10.190	-142.105	  3.06830	  0.60885	  2.03107	  0.74846	  1.84502	 -0.05516	  3.16996	709.71997	 25.90	
 10.215	-132.646	  3.06676	  0.70320	  1.91052	  0.63684	  1.98436	 -0.05665	  3.17281	709.65002	 25.90	
 10.203	-123.092	  3.06580	  0.81596	  1.76904	  0.54571	  2.10180	 -0.05832	  3.17313	709.78998	 25.90	
 10.192	-113.678	  3.06245	  0.94257	  1.61470	  0.47690	  2.18961	 -0.05725	  3.17417	709.77002	 25.90	
 10.208	-104.249	  3.05703	  1.08620	  1.44857	  0.42830	  2.25125	 -0.05571	  3.17138	709.71997	 25.90	
 10.210	-94.801	  3.05428	  1.24254	  1.27984	  0.40383	  2.28321	 -0.05356	  3.17310	709.76001	 25.90	
 10.210	-85.199	  3.04683	  1.40462	  1.11129	  0.39735	  2.28408	 -0.05355	  3.17078	709.82001	 25.90	
 10.208	-75.751	  3.04033	  1.56777	  0.95134	  0.41432	  2.25052	 -0.05176	  3.16808	709.75000	 25.90	
 10.192	-66.322	  3.03786	  1.73086	  0.80409	  0.45061	  2.19406	 -0.05088	  3.17249	709.71002	 25.90	
 10.203	-56.908	  3.03090	  1.88352	  0.66790	  0.50468	  2.10777	 -0.04694	  3.17202	709.75000	 25.90	
 10.215	-47.354	  3.02537	  2.02617	  0.54969	  0.58401	  1.99438	 -0.04256	  3.17248	709.71997	 25.90	
 10.190	-37.895	  3.01992	  2.15032	  0.45143	  0.68625	  1.85734	 -0.03953	  3.17227	709.64001	 25.90	
 10.194	-28.474	  3.01600	  2.25260	  0.37130	  0.80309	  1.70545	 -0.03437	  3.17312	709.79999	 25.90	
 10.210	-18.966	  3.01186	  2.32994	  0.31370	  0.93430	  1.54697	 -0.02855	  3.17411	709.73999	 25.90	
 10.191	 -9.503	  3.00525	  2.37197	  0.28217	  1.08346	  1.37954	 -0.01800	  3.16944	709.83002	 25.90	
 10.200	  0.000	  3.00571	  2.39066	  0.26692	  1.24361	  1.21002	 -0.01079	  3.17209	709.65997	 25.90	
 10.191	  9.503	  3.00213	  2.37593	  0.27351	  1.40428	  1.05053	 -0.00738	  3.17230	709.72998	 25.90	
 10.210	 18.966	  3.00192	  2.33730	  0.29806	  1.56907	  0.90073	 -0.00669	  3.17307	709.65997	 25.90	
 10.194	 28.474	  3.00237	  2.26288	  0.34847	  1.73249	  0.75926	 -0.00116	  3.17271	709.76001	 25.90	
 10.190	 37.895	  3.00309	  2.16407	  0.41841	  1.88250	  0.64019	 -0.00140	  3.17137	709.73999	 25.90	
 10.215	 47.354	  3.00314	  2.04346	  0.50495	  2.02103	  0.53321	 -0.00398	  3.16998	709.75000	 25.90	
 10.203	 56.908	  3.00678	  1.90174	  0.61566	  2.14098	  0.44787	 -0.00747	  3.16937	709.64001	 25.90	
 10.192	 66.322	  3.01236	  1.75187	  0.74275	  2.23639	  0.38662	 -0.01143	  3.17292	709.73999	 25.90	
 10.208	 75.751	  3.01629	  1.59059	  0.88416	  2.30700	  0.34066	 -0.01323	  3.17292	709.62000	 25.90	
 10.210	 85.199	  3.01874	  1.42438	  1.03740	  2.34443	  0.31805	 -0.01348	  3.17110	709.65997	 25.90	
 10.210	 94.801	  3.02205	  1.25932	  1.20028	  2.35378	  0.31312	 -0.01979	  3.17083	709.67999	 25.90	
 10.208	104.249	  3.03076	  1.10360	  1.37145	  2.33461	  0.33359	 -0.02486	  3.17387	709.69000	 25.90	
 10.192	113.678	  3.03454	  0.95862	  1.53708	  2.28090	  0.37522	 -0.02806	  3.17150	709.71997	 25.90	
 10.203	123.092	  3.04261	  0.83017	  1.69754	  2.20067	  0.43991	 -0.03000	  3.17374	709.67999	 25.90	
 10.215	132.646	  3.04650	  0.71188	  1.84772	  2.09316	  0.52268	 -0.03360	  3.17255	709.69000	 25.90	
 10.190	142.105	  3.05044	  0.61759	  1.97710	  1.96281	  0.62780	 -0.03662	  3.16924	709.72998	 25.90	
 10.194	151.526	  3.05586	  0.53902	  2.08628	  1.82165	  0.74446	 -0.04519	  3.17207	709.64001	 25.90	
 10.210	161.034	  3.06075	  0.48282	  2.17246	  1.66262	  0.88598	 -0.04625	  3.17169	709.64001	 25.90	
 10.191	170.497	  3.06540	  0.45342	  2.22405	  1.50095	  1.03693	 -0.04895	  3.17362	709.79999	 25.90	
 11.899	171.783	  3.00874	  0.26728	  2.36156	  1.45516	  0.98402	 -0.07539	  3.17312	709.71997	 25.90	
 11.890	163.610	  3.00282	  0.29642	  2.31110	  1.62080	  0.82931	 -0.07539	  3.17066	709.67999	 25.90	
 11.889	155.445	  3.00064	  0.34359	  2.23852	  1.78197	  0.69030	 -0.07392	  3.17247	709.67999	 25.90	
 11.909	147.299	  2.99515	  0.40575	  2.14151	  1.93345	  0.56047	 -0.06997	  3.17216	709.73999	 25.90	
 11.902	139.148	  2.98752	  0.48604	  2.02042	  2.07405	  0.44625	 -0.06793	  3.17040	709.72998	 25.90	
 11.894	130.867	  2.98378	  0.58657	  1.88280	  2.20002	  0.35066	 -0.06268	  3.17187	709.75000	 25.90	
 11.897	122.732	  2.97487	  0.70166	  1.72835	  2.30384	  0.26924	 -0.06153	  3.16890	709.65997	 25.90	
 11.903	114.597	  2.97315	  0.83101	  1.56957	  2.38830	  0.21079	 -0.05863	  3.17450	709.71997	 25.80	
 11.893	106.346	  2.96647	  0.97404	  1.39938	  2.44565	  0.16568	 -0.05498	  3.17239	709.71002	 25.80	
 11.892	 98.155	  2.96153	  1.12864	  1.22996	  2.47507	  0.14399	 -0.05267	  3.17261	709.79999	 25.80	
 11.900	 90.000	  2.95627	  1.28899	  1.06272	  2.48088	  0.13603	 -0.04695	  3.17140	709.72998	 25.80	
 11.892	 81.845	  2.94926	  1.45283	  0.90290	  2.45714	  0.14556	 -0.04472	  3.16957	709.60999	 25.80	
 11.893	 73.654	  2.94987	  1.62307	  0.75140	  2.41057	  0.17552	 -0.04440	  3.17540	709.60999	 25.80	
 11.903	 65.403	  2.94278	  1.78490	  0.61075	  2.33508	  0.21884	 -0.04419	  3.17168	709.71002	 25.80	
 11.897	 57.268	  2.93898	  1.93794	  0.48713	  2.23909	  0.28077	 -0.04001	  3.17177	709.62000	 25.80	
 11.894	 49.133	  2.93637	  2.08114	  0.37745	  2.12100	  0.36065	 -0.03626	  3.17403	709.57001	 25.80	
 11.902	 40.852	  2.93172	  2.20978	  0.28454	  1.98106	  0.46013	 -0.03037	  3.17051	709.66998	 25.80	
 11.909	 32.701	  2.93076	  2.32092	  0.20465	  1.83232	  0.57159	 -0.02958	  3.17176	709.65997	 25.80	
 11.889	 24.555	  2.93073	  2.40405	  0.15254	  1.67427	  0.70207	 -0.03084	  3.17185	709.65002	 25.80	
 11.890	 16.390	  2.93154	  2.46633	  0.11258	  1.50928	  0.84303	 -0.03509	  3.17145	709.56000	 25.80	
 11.899	  8.217	  2.93263	  2.50122	  0.09439	  1.34079	  1.00085	 -0.03682	  3.17123	709.62000	 25.80	
 11.900	  0.000	  2.93254	  2.51528	  0.08599	  1.17990	  1.15835	 -0.04072	  3.17191	709.54999	 25.80	
 11.899	 -8.217	  2.93799	  2.50113	  0.10030	  1.01944	  1.33012	 -0.04429	  3.17348	709.63000	 25.80	
 11.890	-16.390	  2.93863	  2.45595	  0.12934	  0.86863	  1.49756	 -0.05433	  3.16978	709.60999	 25.80	
 11.889	-24.555	  2.94374	  2.39012	  0.17773	  0.73352	  1.66053	 -0.06034	  3.17174	709.70001	 25.80	
 11.909	-32.701	  2.94827	  2.30252	  0.24131	  0.60698	  1.82236	 -0.06485	  3.17304	709.67999	 25.80	
 11.902	-40.852	  2.95448	  2.19077	  0.32393	  0.49623	  1.96975	 -0.06865	  3.17434	709.59003	 25.80	
 11.894	-49.133	  2.95880	  2.05714	  0.42820	  0.40527	  2.10154	 -0.06891	  3.17034	709.62000	 25.80	
 11.897	-57.268	  2.96664	  1.91576	  0.54628	  0.33524	  2.21129	 -0.07230	  3.17155	709.65997	 25.80	
 11.903	-65.403	  2.97171	  1.75926	  0.67823	  0.27712	  2.30180	 -0.07104	  3.17059	709.65997	 25.80	
 11.893	-73.654	  2.97752	  1.59602	  0.82702	  0.23984	  2.36693	 -0.07162	  3.16954	709.65002	 25.80	
 11.892	-81.845	  2.98527	  1.42997	  0.98546	  0.21994	  2.40677	 -0.07237	  3.17316	709.67999	 25.80	
 11.900	-90.000	  2.99093	  1.26785	  1.14898	  0.21476	  2.42163	 -0.07323	  3.17351	709.56000	 25.80	
 11.892	-98.155	  2.99314	  1.10925	  1.31568	  0.22975	  2.40463	 -0.07432	  3.17069	709.65002	 25.80	
 11.893	-106.346	  2.99763	  0.95451	  1.48900	  0.26164	  2.36313	 -0.07794	  3.17051	709.67999	 25.80	
 11.903	-114.597	  3.00169	  0.81268	  1.65608	  0.31150	  2.29531	 -0.07690	  3.17189	709.59998	 25.80	
 11.897	-122.732	  3.00718	  0.68913	  1.81190	  0.38079	  2.20440	 -0.07724	  3.17280	709.64001	 25.80	
 11.894	-130.867	  3.00890	  0.57445	  1.95655	  0.46572	  2.09069	 -0.07547	  3.17193	709.60999	 25.80	
 11.902	-139.148	  3.00853	  0.47485	  2.08661	  0.56895	  1.95339	 -0.07468	  3.16983	709.53003	 25.80	
 11.909	-147.299	  3.01376	  0.39800	  2.19550	  0.69079	  1.80715	 -0.07480	  3.17277	709.57001	 25.80	
 11.889	-155.445	  3.01611	  0.33696	  2.28128	  0.82438	  1.64682	 -0.07869	  3.17312	709.60999	 25.80	
 11.890	-163.610	  3.01352	  0.29301	  2.34000	  0.96749	  1.48296	 -0.07753	  3.17181	709.57001	 25.80	
 11.899	-171.783	  3.01275	  0.26947	  2.37449	  1.12425	  1.31478	 -0.07801	  3.17080	709.53003	 25.80	
 11.900	180.000	  3.01055	  0.25717	  2.38211	  1.28816	  1.14591	 -0.07772	  3.17182	709.56000	 25.80	
 13.600	180.000	  2.94052	  0.07556	  2.50859	  1.23167	  1.08457	 -0.10066	  3.17225	709.57001	 25.80	
 13.608	-172.853	  2.94184	  0.08009	  2.50576	  1.06905	  1.24882	 -0.10116	  3.17066	709.59003	 25.80	
 13.611	-165.583	  2.94391	  0.10263	  2.47642	  0.90909	  1.42329	 -0.09861	  3.17341	709.53998	 25.80	
 13.601	-158.353	  2.94230	  0.14039	  2.41964	  0.76427	  1.58587	 -0.09688	  3.16920	709.63000	 25.80	
 13.609	-151.210	  2.94378	  0.19322	  2.34333	  0.62788	  1.75045	 -0.09380	  3.16935	709.53998	 25.80	
 13.611	-143.999	  2.94218	  0.26090	  2.24598	  0.49978	  1.90914	 -0.09065	  3.17174	709.64001	 25.80	
 13.601	-136.825	  2.93873	  0.34617	  2.12798	  0.39121	  2.05299	 -0.08759	  3.16848	709.59003	 25.70	
 13.596	-129.640	  2.93831	  0.44223	  1.99648	  0.29595	  2.18345	 -0.08637	  3.17180	709.65997	 25.70	
