FileType=PCF
NHL=14
Date=03/13/19	11:13:17
Facility=APL
Serial=16071-4
Customer=NASA
NP=6
Mach=0.450000
Calibration=1:1
CalPts=490
TstPts=95
PortNumbering=AP Standard
Units=Torr C m/s kg/m^3 deg mm 
Theta[deg]	Phi[deg]	P1[Torr]	P2[Torr]	P3[Torr]	P4[Torr]	P5[Torr]	P6[Torr]	Pt[Torr]	Ps[Abs,Torr]	Ts[C]	
  0.000	  0.000	 91.49322	 43.50843	 38.62791	 42.57311	 39.05562	  2.02615	 91.32995	711.65002	 37.90	
  1.691	128.401	 91.46319	 40.49571	 41.33681	 46.36842	 35.60926	  1.95305	 91.30091	711.48999	 38.00	
  1.692	 77.194	 91.43458	 44.42698	 37.19819	 47.08638	 34.76448	  2.07106	 91.29855	711.53998	 38.10	
  1.699	 26.182	 91.44550	 47.66483	 34.15526	 44.39632	 37.21616	  2.13373	 91.34897	711.59003	 38.20	
  1.699	-26.182	 91.54492	 47.69173	 34.34368	 40.47156	 40.82248	  2.04893	 91.40034	711.58002	 38.30	
  1.692	-77.194	 91.61985	 44.46472	 37.71229	 38.20516	 43.61083	  1.91177	 91.44803	711.64001	 38.40	
  1.691	-128.401	 91.62847	 40.49354	 41.80445	 39.17150	 42.59164	  1.80621	 91.46126	711.57001	 38.50	
  1.700	180.000	 91.61890	 38.72811	 43.56522	 42.75507	 39.00157	  1.82075	 91.46614	711.53003	 38.60	
  3.400	180.000	 91.57373	 33.86890	 48.23504	 42.57252	 38.74049	  1.48768	 91.46371	711.50000	 38.70	
  3.388	-152.325	 91.59385	 34.83313	 47.21159	 38.49005	 42.93512	  1.47013	 91.45817	711.56000	 38.80	
  3.397	-124.529	 91.62134	 37.68387	 44.15068	 35.29064	 46.67534	  1.45713	 91.47841	711.53998	 38.90	
  3.399	-96.763	 91.61836	 41.86412	 39.73173	 33.54239	 48.47362	  1.51653	 91.49648	711.46997	 39.00	
  3.394	-69.283	 91.58437	 46.39920	 35.20243	 33.91012	 47.84435	  1.65993	 91.53667	711.59998	 39.10	
  3.400	-41.398	 91.52472	 50.27050	 31.74324	 36.25472	 44.98952	  1.80920	 91.54663	711.59003	 39.20	
  3.401	-14.021	 91.40826	 52.39812	 29.47244	 39.80710	 40.68629	  1.95564	 91.51430	711.58002	 39.30	
  3.401	 14.021	 91.35025	 52.42476	 29.20105	 44.13018	 36.72172	  2.04768	 91.55419	711.51001	 39.30	
  3.400	 41.398	 91.34779	 50.30429	 31.22990	 48.25598	 32.83797	  2.06210	 91.56819	711.53998	 39.40	
  3.394	 69.283	 91.40942	 46.51410	 34.46985	 51.55593	 30.33952	  1.99156	 91.62471	711.60999	 39.50	
  3.399	 96.763	 91.47365	 42.05360	 38.76552	 52.36773	 29.78097	  1.87992	 91.59356	711.50000	 39.60	
  3.397	124.529	 91.56156	 37.82816	 43.36107	 50.84073	 31.24444	  1.71795	 91.59176	711.57001	 39.70	
  3.388	152.325	 91.71489	 34.93013	 46.83066	 47.08621	 34.64024	  1.57850	 91.66960	711.53003	 39.70	
  5.099	161.165	 91.35470	 29.58157	 51.57285	 46.75127	 33.73307	  1.08045	 91.60185	711.53998	 39.80	
  5.109	142.013	 91.22675	 31.69705	 48.97186	 51.45488	 29.64249	  1.20368	 91.63264	711.56000	 39.90	
  5.095	123.033	 91.11225	 34.87402	 45.09186	 54.74568	 26.74781	  1.33989	 91.61916	711.58002	 39.90	
  5.105	104.191	 90.98800	 39.07735	 40.44070	 56.48591	 25.15380	  1.51625	 91.65092	711.59003	 40.00	
  5.093	 85.207	 90.92398	 43.74386	 35.78134	 56.63044	 24.94135	  1.68235	 91.69019	711.52002	 40.10	
  5.104	 66.290	 90.84176	 48.37181	 31.63458	 55.25316	 25.92817	  1.78798	 91.69283	711.57001	 40.10	
  5.094	 47.331	 90.75049	 52.25450	 27.39505	 52.30957	 28.32158	  1.87532	 91.65993	711.58002	 40.20	
  5.089	 28.397	 90.76392	 55.37926	 24.88521	 47.89701	 31.89439	  1.89807	 91.66641	711.59998	 40.30	
  5.096	  9.576	 90.82612	 57.10010	 23.59189	 43.41876	 36.12548	  1.85501	 91.70744	711.46002	 40.30	
  5.096	 -9.576	 90.91280	 57.08988	 23.75340	 39.15976	 40.54633	  1.72281	 91.66844	711.50000	 40.40	
  5.089	-28.397	 91.06741	 55.36391	 25.39790	 35.03081	 44.91555	  1.55110	 91.70592	711.56000	 40.40	
  5.094	-47.331	 91.18787	 52.20215	 28.30359	 31.64295	 49.00755	  1.40742	 91.67486	711.50000	 40.50	
  5.104	-66.290	 91.31523	 48.11510	 32.78383	 29.45012	 52.13630	  1.24251	 91.65635	711.53003	 40.60	
  5.093	-85.207	 91.49323	 43.52971	 37.02859	 28.59764	 53.37337	  1.08094	 91.69686	711.53998	 40.60	
  5.105	-104.191	 91.57972	 38.97058	 41.87075	 29.13579	 52.94520	  1.00930	 91.74144	711.58002	 40.70	
  5.095	-123.033	 91.67247	 34.81699	 46.26489	 31.10512	 50.74511	  0.94238	 91.75442	711.53998	 40.70	
  5.109	-142.013	 91.61437	 31.66145	 49.83556	 34.22435	 46.89940	  0.92149	 91.69077	711.57001	 40.80	
  5.099	-161.165	 91.62204	 29.67853	 52.05135	 38.27518	 42.35317	  0.93084	 91.71898	711.50000	 40.90	
  5.100	180.000	 91.59782	 28.93946	 52.72599	 42.36898	 38.13901	  1.00603	 91.75362	711.40997	 40.90	
  6.800	180.000	 90.97765	 23.45969	 57.36960	 41.98809	 37.27817	  0.42411	 91.77112	711.53998	 41.00	
  6.796	-166.229	 91.05652	 24.18195	 56.92845	 37.84628	 41.32727	  0.38234	 91.76078	711.59003	 41.00	
  6.808	-152.311	 91.09350	 25.67671	 55.30333	 33.63414	 46.07395	  0.35472	 91.73991	711.40997	 41.10	
  6.795	-138.383	 91.16257	 28.09772	 52.38313	 30.03532	 50.27821	  0.36225	 91.78098	711.53003	 41.10	
  6.792	-124.591	 91.14607	 31.29623	 48.79441	 27.17524	 53.92888	  0.34416	 91.78108	711.44000	 41.20	
  6.787	-110.754	 91.10549	 35.07409	 44.61600	 25.13608	 56.32293	  0.34158	 91.79973	711.53998	 41.30	
  6.800	-96.985	 91.00673	 39.37458	 39.98146	 23.91202	 57.66225	  0.41782	 91.79765	711.44000	 41.30	
  6.800	-83.015	 90.91148	 43.91066	 35.32388	 23.70663	 57.71933	  0.51592	 91.83286	711.47998	 41.40	
  6.787	-69.246	 90.82790	 48.35488	 31.23479	 24.53713	 56.57055	  0.60238	 91.85992	711.45001	 41.40	
  6.792	-55.409	 90.65973	 52.59240	 26.70991	 26.21128	 54.29485	  0.72536	 91.86682	711.46997	 41.40	
  6.795	-41.617	 90.49562	 56.29319	 23.33502	 28.74270	 50.64943	  0.89834	 91.87033	711.46002	 41.40	
  6.808	-27.689	 90.33023	 59.22422	 20.77972	 32.15055	 46.41196	  1.04001	 91.85526	711.46002	 41.50	
  6.796	-13.771	 90.14272	 61.03770	 19.19420	 36.23830	 41.72465	  1.20419	 91.82504	711.42999	 41.50	
  6.800	  0.000	 90.03298	 61.63703	 18.55590	 40.51392	 37.67656	  1.33486	 91.82851	711.45001	 41.60	
  6.796	 13.771	 89.95565	 61.05323	 18.76770	 44.61708	 33.27067	  1.44684	 91.86524	711.40997	 41.60	
  6.808	 27.689	 89.92962	 59.29866	 20.07974	 49.15838	 29.09465	  1.50157	 91.89385	711.50000	 41.70	
  6.795	 41.617	 89.87363	 56.35634	 22.34222	 53.70925	 25.55652	  1.39349	 91.84837	711.56000	 41.70	
  6.792	 55.409	 89.92801	 52.76309	 25.40679	 57.08437	 22.83927	  1.38015	 91.87749	711.41998	 41.70	
  6.787	 69.246	 90.03457	 48.62102	 29.36094	 59.44762	 21.07896	  1.29447	 91.88663	711.46997	 41.80	
  6.800	 83.015	 90.11259	 44.07077	 33.90378	 60.86086	 20.01614	  1.17991	 91.89668	711.47998	 41.80	
  6.800	 96.985	 90.22958	 39.48275	 38.28022	 61.13226	 19.92538	  1.05059	 91.91295	711.46997	 41.80	
  6.787	110.754	 90.34665	 35.12012	 42.96379	 60.14481	 20.86987	  0.93499	 91.85221	711.50000	 41.80	
  6.792	124.591	 90.50925	 31.39620	 47.37598	 58.19767	 22.61087	  0.78733	 91.86524	711.41998	 41.80	
  6.795	138.383	 90.68051	 27.87411	 51.13966	 55.21285	 25.28332	  0.67784	 91.88866	711.45001	 41.90	
  6.808	152.311	 90.83814	 25.38171	 54.32998	 50.80231	 28.82822	  0.57256	 91.88293	711.44000	 41.90	
  6.796	166.229	 91.02694	 23.88680	 56.60546	 46.28379	 33.04911	  0.48997	 91.92653	711.45001	 41.90	
  8.491	168.704	 90.04379	 18.81677	 60.95521	 45.61655	 31.72082	 -0.21130	 91.91457	711.42999	 42.00	
  8.502	157.493	 89.89415	 19.84685	 59.14016	 50.16825	 27.53141	 -0.14234	 91.88284	711.42999	 42.00	
  8.494	146.194	 89.77109	 21.82379	 56.39763	 54.98699	 23.82951	 -0.01025	 91.93909	711.56000	 42.10	
  8.495	135.039	 89.60944	 24.50282	 52.76690	 58.61013	 20.71957	  0.09077	 91.94518	711.46002	 42.10	
  8.487	123.723	 89.39617	 27.88832	 48.72227	 61.57266	 18.14948	  0.20984	 91.91029	711.48999	 42.10	
  8.492	112.575	 89.24215	 31.93373	 44.28609	 63.71500	 16.31354	  0.30724	 91.94932	711.53003	 42.20	
  8.510	101.220	 89.07687	 36.17594	 39.38757	 65.01005	 15.18103	  0.40693	 91.95715	711.57001	 42.20	
  8.500	 90.000	 88.92434	 40.70918	 34.81218	 65.20996	 14.86196	  0.52095	 91.94650	711.46997	 42.30	
  8.510	 78.780	 88.78664	 45.30373	 30.18132	 64.47989	 15.25370	  0.59553	 91.92793	711.53998	 42.30	
  8.492	 67.425	 88.71836	 50.02291	 25.77826	 62.75026	 16.55265	  0.56684	 91.93616	711.52002	 42.30	
  8.487	 56.277	 88.65140	 54.18839	 22.09176	 60.17183	 18.51267	  0.43430	 91.93069	711.51001	 42.40	
  8.495	 44.961	 88.56160	 58.04252	 18.87235	 56.81780	 21.03946	  0.72082	 91.88686	711.58002	 42.40	
  8.494	 33.806	 88.58114	 61.25824	 16.45456	 52.48577	 24.18209	  0.72706	 91.91295	711.57001	 42.40	
  8.502	 22.507	 88.56128	 63.71558	 14.70944	 48.04560	 27.90744	  0.83803	 91.87970	711.54999	 42.50	
  8.491	 11.296	 88.64223	 65.23973	 13.80221	 43.28436	 32.15582	  0.85726	 91.91014	711.57001	 42.50	
  8.500	  0.000	 88.75592	 65.73154	 13.65108	 39.26757	 36.70357	  0.78922	 91.92363	711.45001	 42.50	
  8.491	-11.296	 88.86240	 65.19321	 14.16982	 34.76531	 41.30459	  0.62694	 91.87993	711.48999	 42.50	
  8.502	-22.507	 89.05106	 63.70191	 15.54520	 30.66551	 45.60276	  0.44135	 91.93377	711.58002	 42.60	
  8.494	-33.806	 89.21323	 61.13043	 17.51914	 27.10382	 49.97506	  0.18869	 91.86708	711.46002	 42.60	
  8.495	-44.961	 89.44854	 57.98616	 20.19872	 24.09392	 54.39401	 -0.12321	 91.96288	711.48999	 42.60	
  8.487	-56.277	 89.63434	 54.01459	 23.66460	 21.50578	 57.77884	 -0.10493	 91.94984	711.58002	 42.60	
  8.492	-67.425	 89.77734	 49.88452	 27.65079	 19.96932	 60.08474	 -0.13466	 91.91386	711.53003	 42.60	
  8.510	-78.780	 89.91376	 45.25677	 32.50488	 18.81321	 61.59355	 -0.23952	 91.94406	711.62000	 42.70	
  8.500	-90.000	 90.04824	 40.60487	 36.91092	 18.66701	 62.02908	 -0.27885	 91.92525	711.45001	 42.70	
  8.510	-101.220	 90.18822	 36.07772	 41.68056	 19.29201	 61.51049	 -0.34855	 91.90364	711.42999	 42.70	
  8.492	-112.575	 90.26468	 31.90391	 46.28948	 20.70654	 59.88746	 -0.40680	 91.89752	711.64001	 42.70	
  8.487	-123.723	 90.38004	 27.76651	 50.54467	 22.78953	 57.45547	 -0.35860	 91.94396	711.45001	 42.80	
  8.495	-135.039	 90.43063	 24.39660	 54.51688	 25.57726	 54.15248	 -0.27679	 91.94083	711.45001	 42.80	
  8.494	-146.194	 90.41657	 21.72698	 57.77841	 28.84139	 49.77986	 -0.30057	 91.95193	711.46002	 42.80	
  8.502	-157.493	 90.37959	 20.00730	 60.16582	 32.77578	 45.25351	 -0.30240	 91.96097	711.44000	 42.80	
  8.491	-168.704	 90.27373	 18.91288	 61.39746	 37.03914	 40.80125	 -0.25452	 91.92248	711.51001	 42.80	
  8.500	180.000	 90.18998	 18.46961	 61.71884	 41.41751	 36.19677	 -0.21176	 91.93247	711.47998	 42.80	
 10.200	180.000	 88.98100	 13.22127	 65.68390	 40.32833	 34.93090	 -0.99279	 92.00169	711.50000	 42.90	
 10.191	-170.497	 89.05830	 13.62796	 65.46545	 36.04488	 39.64032	 -0.98381	 91.96971	711.44000	 42.90	
 10.210	-161.034	 89.06767	 14.55451	 64.40326	 31.50517	 44.03721	 -1.02825	 91.92056	711.56000	 42.90	
 10.194	-151.526	 89.16628	 16.13534	 62.51033	 27.49465	 48.74440	 -1.05167	 91.94829	711.40002	 42.90	
 10.190	-142.105	 89.19329	 18.18159	 59.76830	 24.06045	 53.17673	 -1.43005	 91.92594	711.53998	 42.90	
 10.215	-132.646	 89.17229	 20.82065	 56.23284	 20.82983	 57.45238	 -1.43380	 91.95083	711.50000	 42.90	
 10.203	-123.092	 89.12887	 24.22618	 52.13655	 18.19581	 60.68766	 -1.53914	 91.97552	711.65002	 42.90	
 10.192	-113.678	 89.04734	 28.22355	 47.80215	 16.25355	 63.15501	 -1.25711	 91.94589	711.59998	 43.00	
 10.208	-104.249	 88.95942	 32.61361	 43.14700	 14.76749	 64.88734	 -1.11060	 91.92165	711.52002	 43.00	
 10.210	-94.801	 88.85799	 37.06110	 38.26800	 13.93259	 65.84673	 -1.02546	 91.96712	711.54999	 43.00	
 10.210	-85.199	 88.72046	 41.77503	 33.75742	 13.82377	 65.87769	 -1.03960	 91.99455	711.59998	 43.00	
 10.208	-75.751	 88.52269	 46.44530	 28.81834	 14.17654	 65.04218	 -1.02670	 91.94612	711.54999	 43.00	
 10.192	-66.322	 88.36061	 51.02451	 24.22994	 15.19441	 63.37029	 -1.40366	 91.93253	711.57001	 43.00	
 10.203	-56.908	 88.21586	 55.25537	 20.41011	 16.91662	 61.01323	 -1.37561	 91.95667	711.57001	 43.00	
 10.215	-47.354	 88.00354	 59.36138	 16.97577	 19.11109	 57.83340	 -1.24064	 91.96947	711.59003	 43.10	
 10.190	-37.895	 87.86035	 62.84892	 14.18209	 22.00679	 53.61681	 -1.13097	 92.00063	711.59998	 43.10	
 10.194	-28.474	 87.61549	 65.64221	 11.81898	 25.35797	 49.03436	 -1.00490	 91.94230	711.57001	 43.10	
 10.210	-18.966	 87.41479	 67.75031	  9.85667	 29.15919	 44.28469	 -0.78796	 91.93700	711.56000	 43.10	
 10.191	 -9.503	 87.27534	 68.97897	  8.63163	 33.45469	 40.07365	 -0.31109	 91.93549	711.62000	 43.20	
 10.200	  0.000	 87.13184	 69.44320	  8.05434	 37.99330	 35.35488	  0.05527	 91.94006	711.53003	 43.20	
 10.191	  9.503	 86.99348	 68.97169	  8.38240	 42.39195	 30.83576	 -0.40246	 91.92893	711.46997	 43.20	
 10.210	 18.966	 86.90430	 67.77010	  9.19230	 46.62797	 26.56851	 -0.51461	 91.94393	711.48999	 43.30	
 10.194	 28.474	 86.92268	 65.72014	 10.68611	 51.27140	 22.71349	 -0.50349	 91.99471	711.53003	 43.30	
 10.190	 37.895	 86.96695	 62.89550	 12.80274	 55.68356	 19.40261	 -0.45823	 91.99101	711.53998	 43.30	
 10.215	 47.354	 86.88668	 59.35554	 15.27826	 59.89296	 16.33790	 -0.52395	 91.92355	711.48999	 43.30	
 10.203	 56.908	 86.98900	 55.32891	 18.43342	 63.22365	 13.93779	 -0.67400	 92.00975	711.52002	 43.40	
 10.192	 66.322	 86.98355	 51.02013	 22.03677	 65.77602	 11.93033	 -0.80758	 91.92139	711.42999	 43.40	
 10.208	 75.751	 87.07243	 46.46501	 26.21120	 67.68083	 10.59749	 -0.86438	 91.95320	711.50000	 43.40	
 10.210	 85.199	 87.18137	 41.71709	 30.77565	 68.74941	  9.92810	 -0.34805	 91.94213	711.53998	 43.40	
 10.210	 94.801	 87.34055	 37.02155	 35.66672	 68.98866	  9.86739	 -0.26827	 91.94835	711.60999	 43.40	
 10.208	104.249	 87.47692	 32.53304	 40.36386	 68.37585	 10.38898	 -1.08311	 91.91354	711.54999	 43.50	
 10.192	113.678	 87.69977	 28.22624	 45.18837	 66.99153	 11.65915	 -0.77236	 91.95090	711.48999	 43.50	
 10.203	123.092	 87.94106	 24.43865	 49.75046	 64.81551	 13.57251	 -1.18923	 91.97664	711.54999	 43.50	
 10.215	132.646	 88.13189	 21.10979	 53.96857	 61.89777	 15.94012	 -0.67949	 91.99854	711.47998	 43.50	
 10.190	142.105	 88.30620	 18.36305	 57.95465	 58.29504	 18.84081	 -0.95128	 91.98250	711.59003	 43.50	
 10.194	151.526	 88.44282	 16.10022	 61.05368	 53.87832	 22.09409	 -1.35600	 91.97536	711.48999	 43.50	
 10.210	161.034	 88.59743	 14.41145	 63.49210	 49.34714	 25.97710	 -0.95484	 91.94930	711.59998	 43.50	
 10.191	170.497	 88.81309	 13.51719	 65.02895	 44.65597	 30.39408	 -0.99006	 91.98820	711.50000	 43.50	
 11.899	171.783	 87.19637	  7.96670	 68.67389	 43.69980	 28.80622	 -2.39591	 91.99757	711.45001	 43.60	
 11.890	163.610	 87.05834	  8.95728	 67.34842	 48.11058	 24.48738	 -2.40488	 91.99106	711.51001	 43.60	
 11.889	155.445	 86.86929	 10.32091	 65.26933	 52.66153	 20.50221	 -2.47121	 91.97507	711.42999	 43.60	
 11.909	147.299	 86.66466	 12.21003	 62.45160	 57.24078	 17.00097	 -2.41507	 91.95996	711.53003	 43.60	
 11.902	139.148	 86.46092	 14.58758	 59.01738	 61.28392	 13.82933	 -2.30116	 91.94726	711.41998	 43.60	
 11.894	130.867	 86.29456	 17.56681	 54.83340	 64.76566	 11.08511	 -2.21721	 91.93716	711.42999	 43.60	
 11.897	122.732	 86.14156	 20.94663	 50.53360	 67.69032	  8.75581	 -2.15475	 91.95084	711.40002	 43.70	
 11.903	114.597	 85.95982	 24.54411	 46.00467	 69.84009	  6.98800	 -2.15286	 91.97259	711.41998	 43.70	
 11.893	106.346	 85.79398	 28.72346	 41.14706	 71.19449	  5.73568	 -2.08197	 91.96703	711.45001	 43.70	
 11.892	 98.155	 85.66322	 33.33137	 36.34858	 72.14692	  4.94474	 -1.97923	 91.99973	711.46997	 43.70	
 11.900	 90.000	 85.44427	 37.90435	 31.43476	 72.31060	  4.55286	 -1.46230	 91.96818	711.44000	 43.70	
 11.892	 81.845	 85.25263	 42.58498	 26.77640	 71.56551	  5.00514	 -1.79269	 91.91906	711.42999	 43.70	
 11.893	 73.654	 85.18459	 47.37238	 22.36029	 70.49117	  5.97497	 -1.79087	 91.98621	711.53003	 43.80	
 11.903	 65.403	 85.08772	 52.00378	 18.27814	 68.50099	  7.32145	 -1.75526	 91.97677	711.37000	 43.80	
 11.897	 57.268	 85.00363	 56.29189	 14.78375	 65.87348	  9.12893	 -1.65457	 91.97798	711.41998	 43.80	
 11.894	 49.133	 84.93719	 60.41416	 11.59142	 62.67363	 11.48237	 -1.43299	 91.98409	711.57001	 43.80	
 11.902	 40.852	 84.92984	 64.10188	  8.29739	 58.74508	 14.28619	 -1.34472	 91.96347	711.41998	 43.80	
 11.909	 32.701	 84.98493	 67.23031	  6.22896	 54.16242	 17.53897	 -1.35750	 92.00434	711.57001	 43.80	
 11.889	 24.555	 84.96095	 69.57248	  4.70480	 49.73928	 21.11354	 -1.41374	 91.95766	711.64001	 43.80	
 11.890	 16.390	 84.97814	 71.39278	  3.61484	 44.95698	 25.16299	 -1.41899	 91.97176	711.52002	 43.80	
 11.899	  8.217	 85.00523	 72.53010	  2.92345	 40.79785	 29.40955	 -1.44871	 91.92702	711.57001	 43.90	
 11.900	  0.000	 85.18454	 72.90720	  2.85246	 36.25885	 33.89868	 -1.15441	 91.92510	711.51001	 43.90	
 11.899	 -8.217	 85.33182	 72.50498	  3.31398	 31.78773	 38.72688	 -1.61932	 91.91227	711.53003	 43.90	
 11.890	-16.390	 85.49735	 71.33045	  4.21989	 27.57208	 43.30679	 -1.73829	 91.94498	711.48999	 43.90	
 11.889	-24.555	 85.67854	 69.52057	  5.72486	 23.74712	 47.69960	 -1.84794	 91.92574	711.48999	 44.00	
 11.909	-32.701	 85.82478	 67.15348	  7.77462	 20.05428	 52.26736	 -1.97128	 91.94153	711.51001	 44.00	
 11.902	-40.852	 86.02088	 64.09473	 10.35631	 16.88343	 56.84641	 -1.96393	 91.95618	711.41998	 44.00	
 11.894	-49.133	 86.22070	 60.32262	 13.61405	 14.23452	 60.73051	 -1.97604	 91.95789	711.40997	 44.00	
 11.897	-57.268	 86.43947	 56.16605	 17.23619	 12.21876	 63.79005	 -2.07566	 91.91563	711.47998	 44.00	
 11.903	-65.403	 86.57304	 51.87268	 21.08338	 10.50317	 66.34010	 -2.13895	 91.92994	711.53003	 44.00	
 11.893	-73.654	 86.73346	 47.25269	 25.31878	  9.39997	 68.17440	 -2.18399	 91.90708	711.47998	 44.00	
 11.892	-81.845	 86.88474	 42.47932	 29.96626	  8.81074	 69.27888	 -2.07178	 91.89147	711.48999	 44.00	
 11.900	-90.000	 87.01266	 37.76140	 34.69318	  8.63195	 69.65972	 -1.77647	 91.89466	711.46002	 44.00	
 11.892	-98.155	 87.22950	 33.37406	 39.25319	  9.12769	 69.26762	 -1.88094	 91.93708	711.46002	 44.00	
 11.893	-106.346	 87.31357	 28.79975	 44.20317	 10.10938	 68.07516	 -2.19628	 91.89645	711.60999	 44.00	
 11.903	-114.597	 87.41645	 24.54096	 48.95921	 11.60536	 66.11162	 -2.22830	 91.91026	711.51001	 44.00	
 11.897	-122.732	 87.50361	 20.95357	 53.29178	 13.69688	 63.48801	 -2.22854	 91.89394	711.45001	 44.10	
 11.894	-130.867	 87.54527	 17.60723	 57.49025	 16.11856	 60.28855	 -2.05611	 91.90969	711.46002	 44.10	
 11.902	-139.148	 87.56378	 14.58014	 61.23632	 19.07128	 56.46096	 -2.13480	 91.88029	711.58002	 44.10	
 11.909	-147.299	 87.56644	 12.26851	 64.31337	 22.52250	 51.81396	 -2.23577	 91.91035	711.46002	 44.10	
 11.889	-155.445	 87.50427	 10.42851	 66.55074	 26.25414	 47.26137	 -2.33641	 91.88360	711.58002	 44.20	
 11.890	-163.610	 87.45837	  8.97318	 68.18323	 30.25972	 42.76137	 -2.40333	 91.89725	711.54999	 44.20	
 11.899	-171.783	 87.35983	  8.09187	 69.09699	 34.68047	 38.10007	 -1.87581	 91.90117	711.48999	 44.20	
 11.900	180.000	 87.25749	  7.75669	 69.20061	 39.19939	 33.28777	 -1.87161	 91.88102	711.41998	 44.20	
 13.600	180.000	 85.33018	  2.49205	 72.79210	 37.70024	 31.49142	 -2.94568	 91.88940	711.56000	 44.20	
 13.608	-172.853	 85.41809	  2.54373	 72.72514	 33.17488	 36.18683	 -2.77415	 91.90456	711.56000	 44.20	
 13.611	-165.583	 85.56654	  3.33424	 71.95462	 28.77407	 41.11177	 -2.90823	 91.94561	711.52002	 44.20	
 13.601	-158.353	 85.64734	  4.60438	 70.34131	 24.79271	 45.53082	 -2.77381	 91.90961	711.47998	 44.20	
 13.609	-151.210	 85.69826	  6.17916	 68.31843	 20.91277	 50.30121	 -2.58890	 91.91768	711.51001	 44.30	
 13.611	-143.999	 85.71231	  8.22555	 65.68111	 17.31186	 54.88986	 -2.47401	 91.91244	711.57001	 44.30	
 13.601	-136.825	 85.75590	 10.76206	 62.45274	 14.17993	 59.27541	 -2.37653	 91.90028	711.41998	 44.30	
 13.596	-129.640	 85.71972	 13.76078	 58.64132	 11.41181	 62.87949	 -2.39082	 91.90298	711.41998	 44.30	
