FileType=PCF
NHL=14
Date=05/30/19	10:19:24
Facility=APL
Serial=16071-4
Customer=NASA
NP=6
Mach=0.550000
Calibration=1:1
CalPts=490
TstPts=95
PortNumbering=AP Standard
Units=Torr C m/s kg/m^3 deg mm 
Theta[deg]	Phi[deg]	P1[Torr]	P2[Torr]	P3[Torr]	P4[Torr]	P5[Torr]	P6[Torr]	Pt[Torr]	Ps[Abs,Torr]	Ts[C]	
  0.000	  0.000	164.28758	 83.03822	 75.18215	 80.93470	 77.81051	  6.81498	164.16681	702.50000	 36.70	
  1.691	128.401	164.28546	 78.18612	 79.76890	 86.88444	 71.68913	  6.72978	164.17474	702.50000	 36.70	
  1.692	 77.194	164.20470	 84.58138	 73.03748	 88.25048	 70.18591	  6.77800	164.14822	702.66998	 36.70	
  1.699	 26.182	164.20876	 89.92171	 67.82014	 84.08471	 74.03411	  6.73021	164.18506	702.47998	 36.80	
  1.699	-26.182	164.23926	 89.86755	 68.00480	 77.36726	 80.78300	  6.66018	164.17215	702.65002	 36.70	
  1.692	-77.194	164.34503	 84.60750	 73.50198	 73.52377	 85.00352	  6.63681	164.25191	702.58002	 36.70	
  1.691	-128.401	164.43311	 78.09955	 80.16367	 75.12583	 83.69989	  6.62231	164.30188	702.57001	 36.70	
  1.700	180.000	164.46867	 75.24273	 83.08443	 81.10793	 77.83255	  6.63831	164.34567	702.59003	 36.80	
  3.400	180.000	164.42415	 67.07327	 90.94102	 80.74345	 77.32449	  6.17207	164.37944	702.65002	 36.80	
  3.388	-152.325	164.43188	 68.80774	 89.16097	 73.71712	 84.52676	  6.19227	164.39046	702.40002	 36.90	
  3.397	-124.529	164.45486	 73.69214	 84.06611	 68.32363	 90.10581	  6.19761	164.40675	702.45001	 36.80	
  3.399	-96.763	164.33481	 80.59458	 76.75548	 65.72345	 92.60833	  6.15651	164.35699	702.50000	 36.90	
  3.394	-69.283	164.22296	 87.97079	 69.30037	 66.35079	 91.60612	  6.17586	164.36047	702.58002	 36.90	
  3.400	-41.398	164.08179	 94.47241	 63.09624	 70.30092	 87.15984	  6.20208	164.35432	702.59003	 36.90	
  3.401	-14.021	164.09409	 98.24426	 59.56613	 76.64677	 80.56597	  6.24662	164.48799	702.58002	 36.90	
  3.401	 14.021	164.01274	 98.17335	 59.39632	 83.99789	 73.14454	  6.32522	164.48769	702.53998	 37.60	
  3.400	 41.398	164.04768	 94.42883	 62.53552	 90.60300	 66.86089	  6.42132	164.50053	702.59003	 37.60	
  3.394	 69.283	164.10034	 88.14148	 68.52911	 94.89144	 62.84637	  6.43728	164.45953	702.63000	 37.60	
  3.399	 96.763	164.26955	 80.94941	 75.88916	 95.92518	 62.11892	  6.46660	164.48363	702.62000	 37.60	
  3.397	124.529	164.43158	 73.90413	 83.24253	 93.48615	 64.89321	  6.35088	164.53340	702.69000	 37.60	
  3.388	152.325	164.56689	 69.02217	 88.67439	 88.05703	 70.40910	  6.23951	164.54634	702.64001	 37.60	
  5.099	161.165	164.12727	 60.13083	 96.84966	 87.74007	 69.40435	  5.52744	164.55574	702.66998	 37.60	
  5.109	142.013	163.96532	 63.78633	 92.54308	 94.37352	 62.61589	  5.61874	164.53464	702.57001	 37.60	
  5.095	123.033	163.75870	 69.36429	 86.20403	 99.54047	 56.72911	  5.79169	164.52034	702.70001	 37.60	
  5.105	104.191	163.56935	 76.22334	 78.69646	102.66243	 53.74884	  5.84731	164.52289	702.63000	 37.60	
  5.093	 85.207	163.41034	 83.76653	 70.98604	103.04270	 53.25389	  5.91244	164.54805	702.56000	 37.60	
  5.104	 66.290	163.26938	 91.22003	 63.67124	100.97438	 54.51302	  5.92615	164.58522	702.47998	 37.60	
  5.094	 47.331	163.15067	 97.97304	 57.41215	 96.52397	 58.59357	  5.90140	164.60712	702.59003	 37.70	
  5.089	 28.397	163.10155	103.07852	 53.17065	 90.37692	 65.05972	  5.81412	164.62828	702.58002	 37.70	
  5.096	  9.576	163.09985	105.63142	 51.08921	 83.23338	 72.02180	  5.75655	164.58339	702.57001	 37.70	
  5.096	 -9.576	163.23065	105.61550	 51.39751	 75.65787	 79.85323	  5.70082	164.63100	702.51001	 37.80	
  5.089	-28.397	163.34372	103.11618	 53.86806	 68.76225	 87.10309	  5.67130	164.62987	702.53998	 37.80	
  5.094	-47.331	163.56982	 98.01820	 58.49933	 62.94133	 93.39028	  5.69811	164.62784	702.48999	 37.80	
  5.104	-66.290	163.79366	 91.17515	 64.84759	 58.72581	 97.83089	  5.64920	164.66202	702.54999	 37.80	
  5.093	-85.207	163.96066	 83.55499	 72.37814	 56.73924	 99.95741	  5.62462	164.63824	702.38000	 37.90	
  5.105	-104.191	164.03476	 75.94340	 80.13432	 57.73616	 99.41688	  5.58028	164.56964	702.42999	 37.90	
  5.095	-123.033	164.13457	 69.13686	 87.51656	 61.18587	 96.15765	  5.54043	164.54643	702.56000	 37.90	
  5.109	-142.013	164.22993	 63.52333	 93.65755	 66.34875	 90.99303	  5.55339	164.57025	702.42999	 38.00	
  5.099	-161.165	164.25223	 60.09587	 97.40337	 72.88496	 84.22170	  5.49634	164.54938	702.58002	 38.10	
  5.100	180.000	164.22037	 58.85652	 98.52344	 80.24042	 76.81755	  5.48618	164.56433	702.46002	 38.10	
  6.800	180.000	163.34807	 50.72074	105.40703	 79.28158	 75.76918	  4.88180	164.61218	702.50000	 38.10	
  6.796	-166.229	163.37123	 51.57675	104.71445	 71.98311	 83.16016	  4.96116	164.60190	702.47998	 38.10	
  6.808	-152.311	163.39719	 54.10344	102.27426	 65.15966	 90.17125	  5.05757	164.63321	702.54999	 38.10	
  6.795	-138.383	163.36894	 58.12608	 97.61223	 58.61535	 96.37811	  5.05443	164.65689	702.45001	 38.20	
  6.792	-124.591	163.24982	 63.32298	 91.68662	 53.22171	101.55921	  4.99784	164.63557	702.47998	 38.20	
  6.787	-110.754	163.11424	 69.79177	 84.56711	 50.64702	105.26736	  5.03672	164.64735	702.51001	 38.20	
  6.800	-96.985	162.91315	 76.55293	 77.05288	 49.21868	107.12933	  5.08504	164.59000	702.58002	 38.20	
  6.800	-83.015	162.73608	 84.01643	 69.45094	 48.98996	107.08720	  5.12418	164.62617	702.48999	 38.30	
  6.787	-69.246	162.54193	 91.44102	 62.37153	 50.24676	104.95216	  5.16771	164.59488	702.53003	 38.30	
  6.792	-55.409	162.33800	 98.36851	 55.94423	 52.77003	101.02830	  5.19510	164.60504	702.52002	 38.40	
  6.795	-41.617	162.12462	104.59332	 50.50088	 57.15521	 95.65823	  5.25232	164.63451	702.50000	 38.40	
  6.808	-27.689	161.87381	109.01463	 46.28547	 63.94287	 89.24360	  5.19979	164.63031	702.48999	 38.50	
  6.796	-13.771	161.73598	111.91526	 43.72219	 70.99165	 81.99242	  5.25904	164.64923	702.51001	 38.50	
  6.800	  0.000	161.60915	112.86657	 42.68163	 78.15667	 74.47917	  5.22304	164.65123	702.60999	 38.50	
  6.796	 13.771	161.56413	111.88302	 43.29676	 85.44543	 67.03208	  5.18776	164.67328	702.65002	 38.40	
  6.808	 27.689	161.57243	108.94381	 45.53910	 92.50524	 59.41022	  5.24345	164.67746	702.57001	 38.40	
  6.795	 41.617	161.63733	104.74956	 49.38119	 98.68667	 54.15689	  5.24862	164.69502	702.69000	 38.40	
  6.792	 55.409	161.75934	 98.54182	 54.52915	103.86987	 50.67548	  5.27445	164.65932	702.57001	 38.40	
  6.787	 69.246	161.89383	 91.75233	 60.76736	107.67565	 47.65865	  5.28027	164.65332	702.53003	 38.40	
  6.800	 83.015	162.08459	 84.41597	 67.81996	109.87881	 45.93680	  5.27658	164.67638	702.56000	 38.30	
  6.800	 96.985	162.30244	 77.02901	 75.32145	110.15282	 46.00927	  5.25785	164.68811	702.59003	 38.30	
  6.787	110.754	162.52182	 69.91732	 82.92212	108.44238	 47.83441	  5.22700	164.68748	702.58002	 38.30	
  6.792	124.591	162.76820	 63.53282	 90.16460	104.97166	 50.99008	  5.25966	164.70015	702.56000	 38.30	
  6.795	138.383	162.98657	 58.36624	 96.24688	 99.81536	 54.57897	  5.12368	164.68196	702.53998	 38.30	
  6.808	152.311	163.18546	 54.31252	101.30009	 93.64545	 61.12365	  4.94692	164.67397	702.48999	 38.30	
  6.796	166.229	163.36116	 51.71896	104.40149	 86.67020	 68.46883	  4.91869	164.69939	702.56000	 38.30	
  8.491	168.704	161.84135	 43.13840	111.37864	 85.41509	 66.58022	  4.64954	164.66504	702.58002	 38.40	
  8.502	157.493	161.75005	 45.34029	108.60569	 92.78325	 58.51102	  4.69557	164.70853	702.52002	 38.40	
  8.494	146.194	161.56914	 48.73874	104.61755	 99.43871	 52.94443	  4.79318	164.69235	702.62000	 38.50	
  8.495	135.039	161.28651	 53.21212	 98.82975	105.50426	 48.03656	  4.89313	164.66866	702.60999	 38.50	
  8.487	123.723	161.07709	 58.66624	 92.37289	110.54279	 43.65712	  4.95624	164.73053	702.62000	 38.50	
  8.492	112.575	160.73083	 64.62102	 85.13417	113.67976	 40.21620	  4.83710	164.65839	702.53003	 38.60	
  8.510	101.220	160.51482	 71.75806	 77.29098	115.71149	 38.26194	  4.77095	164.65634	702.54999	 38.60	
  8.500	 90.000	160.27809	 79.21532	 69.68114	116.24281	 37.58108	  4.80138	164.65457	702.51001	 38.60	
  8.510	 78.780	160.08113	 86.67875	 62.28954	115.20231	 38.21565	  4.77320	164.66344	702.56000	 38.70	
  8.492	 67.425	159.87560	 94.12154	 55.30128	112.78056	 40.21114	  4.76645	164.64313	702.56000	 38.70	
  8.487	 56.277	159.75214	101.18204	 49.25200	109.00812	 43.38273	  4.83705	164.69400	702.62000	 38.70	
  8.495	 44.961	159.59540	107.42313	 44.00722	103.74992	 47.65499	  4.85660	164.66847	702.53003	 38.70	
  8.494	 33.806	159.54535	112.33537	 39.82462	 97.69824	 52.50563	  4.89438	164.66151	702.47998	 38.70	
  8.502	 22.507	159.45810	116.28158	 36.74169	 90.93692	 57.48604	  4.95751	164.68286	702.59003	 38.70	
  8.491	 11.296	159.47569	118.54639	 35.05641	 83.72408	 64.51953	  4.97908	164.64793	702.52002	 38.70	
  8.500	  0.000	159.55080	119.48898	 34.47672	 76.19758	 72.76376	  5.03919	164.69269	702.51001	 38.70	
  8.491	-11.296	159.67332	118.60173	 35.34914	 68.50152	 80.47872	  5.09278	164.64943	702.53998	 38.70	
  8.502	-22.507	159.80156	116.33829	 37.31814	 60.67196	 87.92775	  5.08839	164.67267	702.57001	 38.80	
  8.494	-33.806	160.03114	112.33152	 40.88284	 54.66393	 95.00120	  5.09555	164.67949	702.62000	 38.80	
  8.495	-44.961	160.28296	107.20535	 45.34161	 50.13105	101.28692	  5.12208	164.66365	702.58002	 38.80	
  8.487	-56.277	160.57716	100.85834	 50.99479	 46.18880	106.69360	  5.08989	164.66177	702.53998	 38.80	
  8.492	-67.425	160.75121	 93.97488	 57.19899	 43.04567	110.47446	  5.04468	164.65192	702.53998	 38.90	
  8.510	-78.780	160.96983	 86.27324	 64.38269	 41.18417	112.76310	  5.01791	164.64560	702.53998	 38.90	
  8.500	-90.000	161.21933	 78.69645	 71.89884	 40.83097	113.69968	  4.94484	164.66939	702.52002	 38.90	
  8.510	-101.220	161.38361	 71.42181	 79.47686	 41.69904	113.02403	  4.89168	164.64418	702.59998	 38.90	
  8.492	-112.575	161.57355	 64.47701	 87.26011	 43.88505	110.80431	  4.83601	164.65491	702.51001	 38.90	
  8.487	-123.723	161.80919	 58.43332	 94.22375	 47.49780	107.23375	  4.81491	164.70511	702.53003	 38.80	
  8.495	-135.039	161.93604	 52.99861	100.74666	 51.51328	102.07878	  4.84009	164.70370	702.57001	 38.90	
  8.494	-146.194	162.03632	 48.79778	105.72021	 55.79515	 95.97622	  4.88088	164.70314	702.51001	 38.90	
  8.502	-157.493	162.03102	 45.25232	109.63643	 63.00372	 89.19321	  4.82518	164.68867	702.63000	 38.90	
  8.491	-168.704	161.93044	 43.21401	111.84687	 70.31569	 81.99192	  4.73249	164.63503	702.59003	 38.90	
  8.500	180.000	161.94763	 42.60415	112.55837	 77.86087	 74.30726	  4.62359	164.66087	702.51001	 38.90	
 10.200	180.000	159.95723	 34.35952	119.13348	 76.08127	 72.15893	  4.78958	164.64473	702.46997	 38.90	
 10.191	-170.497	160.03374	 34.94134	118.59286	 68.11242	 80.10800	  4.85633	164.69800	702.54999	 38.90	
 10.210	-161.034	160.03276	 36.50526	116.69361	 60.21101	 87.64352	  4.92089	164.70107	702.60999	 38.90	
 10.194	-151.526	160.03131	 39.31421	113.27104	 53.76429	 94.94266	  4.91991	164.68860	702.46002	 38.90	
 10.190	-142.105	159.99605	 42.97948	108.63535	 49.06707	101.52718	  4.93939	164.70372	702.53998	 38.90	
 10.215	-132.646	159.86810	 47.48157	103.39422	 43.87569	107.55753	  4.90225	164.68773	702.53003	 38.90	
 10.203	-123.092	159.77322	 53.02648	 96.50745	 39.63926	112.33617	  4.95077	164.75066	702.56000	 38.90	
 10.192	-113.678	159.56073	 59.18042	 89.42790	 36.16149	116.29835	  4.96378	164.69868	702.57001	 38.90	
 10.208	-104.249	159.40778	 66.07240	 81.46606	 33.88260	119.29537	  5.03837	164.69963	702.54999	 38.90	
 10.210	-94.801	159.15746	 73.25462	 73.89383	 32.68261	120.54665	  5.09928	164.70937	702.54999	 38.90	
 10.210	-85.199	158.93552	 80.66908	 66.29565	 32.29797	120.40140	  5.15549	164.72394	702.63000	 39.00	
 10.208	-75.751	158.64294	 88.52554	 58.72141	 32.89048	118.92144	  5.17318	164.69131	702.53998	 38.90	
 10.192	-66.322	158.45354	 96.01045	 51.78651	 35.00412	115.56327	  5.21114	164.70857	702.54999	 39.00	
 10.203	-56.908	158.19495	103.06847	 45.54378	 38.10985	111.72666	  5.30318	164.72581	702.63000	 39.00	
 10.215	-47.354	157.92241	109.39481	 39.87500	 42.34562	106.60104	  5.26427	164.71318	702.58002	 39.00	
 10.190	-37.895	157.69173	114.97356	 35.12833	 47.05484	100.30862	  5.25040	164.71448	702.59998	 39.00	
 10.194	-28.474	157.44554	119.56236	 31.18537	 52.25229	 93.56729	  5.24709	164.72876	702.57001	 39.00	
 10.210	-18.966	157.27536	122.96916	 28.32960	 58.46277	 86.02198	  5.27507	164.73579	702.59998	 39.10	
 10.191	 -9.503	157.12636	124.93292	 26.77933	 65.58790	 78.32990	  5.21117	164.72549	702.66998	 39.10	
 10.200	  0.000	156.92915	125.54544	 26.19607	 74.00105	 69.79649	  5.16100	164.66609	702.60999	 39.20	
 10.191	  9.503	156.83714	124.88091	 26.33982	 81.59395	 62.23678	  5.07678	164.67291	702.54999	 39.30	
 10.210	 18.966	156.80585	122.97932	 27.67574	 89.04917	 55.55467	  5.04278	164.69569	702.50000	 39.30	
 10.194	 28.474	156.86197	119.55235	 30.23175	 96.19532	 50.12179	  4.94963	164.68085	702.65002	 39.50	
 10.190	 37.895	156.95163	115.07642	 33.87997	102.79621	 44.46754	  4.91353	164.69780	702.56000	 39.50	
 10.215	 47.354	157.04651	109.71732	 38.35779	108.83578	 39.62582	  4.83510	164.74756	702.64001	 39.50	
 10.203	 56.908	157.24237	103.31033	 43.78215	113.83719	 35.49889	  4.76062	164.71660	702.54999	 39.40	
 10.192	 66.322	157.45320	 96.07474	 49.88728	117.67535	 32.50159	  4.68508	164.69933	702.60999	 39.40	
 10.208	 75.751	157.55907	 88.65415	 56.52807	121.18430	 30.24618	  4.63369	164.68761	702.63000	 39.50	
 10.210	 85.199	157.80513	 81.01935	 63.88491	122.84637	 29.26061	  4.64054	164.69720	702.47998	 39.50	
 10.210	 94.801	158.00807	 73.41809	 71.45950	123.06796	 29.41925	  4.61953	164.65988	702.56000	 39.40	
 10.208	104.249	158.30009	 66.21235	 79.00673	122.02163	 30.39994	  4.68113	164.69601	702.65997	 39.40	
 10.192	113.678	158.60585	 59.37601	 86.85001	119.22928	 32.65956	  4.81661	164.68449	702.57001	 39.40	
 10.203	123.092	158.93925	 53.29914	 94.41379	115.11584	 35.91697	  4.90247	164.73247	702.60999	 39.50	
 10.215	132.646	159.08800	 47.81944	101.13516	110.87582	 40.08556	  4.93174	164.67654	702.62000	 39.50	
 10.190	142.105	159.32338	 43.08537	107.14568	104.80921	 45.30165	  4.96405	164.65741	702.53998	 39.50	
 10.194	151.526	159.57570	 39.23824	111.90083	 98.24103	 51.15243	  4.85759	164.69431	702.56000	 39.50	
 10.210	161.034	159.71182	 36.46444	115.79468	 91.21558	 56.55009	  4.79064	164.68701	702.59003	 39.50	
 10.191	170.497	159.91429	 34.99580	118.13070	 83.83116	 63.78350	  4.76506	164.71382	702.50000	 39.50	
 11.899	171.783	157.48514	 26.27747	124.25948	 81.55902	 61.48173	  4.99095	164.70757	702.52002	 39.50	
 11.890	163.610	157.33171	 27.55780	122.39943	 89.12035	 54.90083	  5.01229	164.73216	702.47998	 39.40	
 11.889	155.445	157.19330	 29.82862	119.11692	 96.45389	 48.84304	  5.10969	164.74409	702.48999	 39.40	
 11.909	147.299	156.91565	 33.02397	114.61062	103.38340	 42.41117	  5.18820	164.72606	702.53003	 39.40	
 11.902	139.148	156.64116	 37.29445	109.19955	109.90130	 36.93642	  5.11882	164.71255	702.65002	 39.40	
 11.894	130.867	156.39449	 42.28027	102.87068	115.33733	 32.13585	  5.17514	164.70981	702.66998	 39.40	
 11.897	122.732	156.08913	 47.69831	 95.95345	120.29053	 27.92628	  4.93845	164.73607	702.66998	 39.40	
 11.903	114.597	155.79320	 53.82680	 88.22736	124.57941	 24.81117	  4.87968	164.72467	702.70001	 39.40	
 11.893	106.346	155.57755	 60.52238	 80.38392	127.20637	 22.82528	  4.81094	164.73079	702.60999	 39.40	
 11.892	 98.155	155.27702	 67.71369	 72.64105	128.61784	 21.62291	  4.78385	164.69305	702.59003	 39.40	
 11.900	 90.000	154.95189	 74.79885	 65.18372	128.95738	 21.02574	  4.79730	164.67828	702.57001	 39.40	
 11.892	 81.845	154.69879	 82.32668	 57.75419	128.13379	 21.10691	  4.79897	164.69519	702.60999	 39.40	
 11.893	 73.654	154.42876	 90.00191	 50.54416	126.13982	 22.34076	  4.94696	164.65628	702.59003	 39.40	
 11.903	 65.403	154.22655	 97.67908	 43.77092	122.76814	 24.50119	  4.97233	164.67476	702.59998	 39.40	
 11.897	 57.268	154.09221	104.91130	 37.78331	117.99451	 27.60869	  4.98969	164.68942	702.67999	 39.50	
 11.894	 49.133	153.87689	111.33410	 32.37451	113.28230	 31.52453	  5.00564	164.64391	702.66998	 39.50	
 11.902	 40.852	153.86873	117.21786	 27.30951	107.20056	 36.31736	  5.15231	164.71315	702.69000	 39.50	
 11.909	 32.701	153.75955	122.26484	 23.16367	100.83087	 41.39803	  5.10051	164.69621	702.67999	 39.50	
 11.889	 24.555	153.75769	125.94395	 20.37620	 93.95502	 47.44769	  5.17087	164.70157	702.65002	 39.60	
 11.890	 16.390	153.70906	128.87619	 18.46232	 86.47076	 53.92002	  5.25786	164.69820	702.59003	 39.60	
 11.899	  8.217	153.71761	130.90761	 17.36599	 78.76089	 59.80630	  5.27520	164.74007	702.58002	 39.60	
 11.900	  0.000	153.81403	131.40741	 17.40960	 70.62447	 67.28137	  5.28644	164.69469	702.70001	 39.60	
 11.899	 -8.217	153.87688	130.80228	 17.60035	 63.08059	 74.78553	  5.35431	164.66113	702.59003	 39.60	
 11.890	-16.390	154.09209	129.00862	 19.04496	 56.65264	 83.56203	  5.40900	164.70276	702.59998	 39.60	
 11.889	-24.555	154.23523	125.96635	 21.44181	 50.25069	 91.25634	  5.41814	164.69656	702.60999	 39.70	
 11.909	-32.701	154.34271	122.07581	 24.67160	 43.75180	 98.55804	  5.46607	164.68010	702.62000	 39.80	
 11.902	-40.852	154.65894	117.16286	 28.99874	 38.39755	105.17983	  5.41075	164.69923	702.60999	 39.80	
 11.894	-49.133	154.92050	111.09576	 34.12669	 33.96451	111.31459	  5.45324	164.67340	702.58002	 39.80	
 11.897	-57.268	155.17567	104.70430	 39.84127	 29.76941	116.22970	  5.46000	164.68671	702.63000	 39.80	
 11.903	-65.403	155.41751	 97.38634	 46.00882	 26.62234	121.00361	  5.39706	164.65933	702.71002	 39.80	
 11.893	-73.654	155.73209	 89.74991	 53.04619	 24.64843	124.18892	  5.30782	164.67827	702.63000	 39.80	
 11.892	-81.845	155.98346	 81.94188	 60.40274	 23.66735	125.99768	  5.30767	164.65967	702.77002	 39.80	
 11.900	-90.000	156.22334	 74.52268	 67.87321	 23.85080	126.70155	  5.26103	164.66721	702.72998	 39.80	
 11.892	-98.155	156.47656	 67.42847	 75.42920	 24.36449	126.13309	  5.25405	164.66104	702.78998	 39.90	
 11.893	-106.346	156.76337	 60.28984	 83.20149	 25.68685	124.55129	  5.28466	164.71596	702.70001	 39.90	
 11.903	-114.597	156.95488	 53.40810	 91.22968	 28.04252	121.72916	  5.24100	164.69463	702.75000	 39.90	
 11.897	-122.732	157.15112	 47.32543	 98.47131	 31.43625	117.29536	  5.19868	164.69252	702.76001	 39.90	
 11.894	-130.867	157.30064	 41.84395	105.58255	 35.78571	112.32616	  5.13708	164.63809	702.78998	 39.90	
 11.902	-139.148	157.51840	 37.07647	111.23811	 40.68757	106.46755	  5.15011	164.70148	702.71002	 39.90	
 11.909	-147.299	157.54784	 33.12564	116.18739	 46.25162	 99.92151	  5.06015	164.66679	702.78003	 39.90	
 11.889	-155.445	157.59836	 30.00031	120.27282	 52.23805	 92.88931	  5.09358	164.69096	702.73999	 39.90	
 11.890	-163.610	157.60760	 27.69202	123.17830	 57.88754	 85.39699	  5.12323	164.68164	702.78003	 39.90	
 11.899	-171.783	157.55171	 26.09411	124.83024	 65.41471	 77.61637	  5.11436	164.69017	702.79999	 39.90	
 11.900	180.000	157.49617	 25.69221	125.17473	 72.90771	 68.86120	  4.99612	164.66504	702.73999	 40.00	
 13.600	180.000	154.34865	 16.78057	131.29631	 70.43402	 66.04616	  5.18513	164.69205	702.69000	 40.00	
 13.608	-172.853	154.37880	 16.90034	131.05188	 62.64419	 73.70366	  5.22867	164.68770	702.66998	 40.10	
 13.611	-165.583	154.47380	 18.31198	129.50627	 55.57067	 82.71231	  5.37550	164.68587	702.89001	 40.10	
 13.601	-158.353	154.47668	 20.50062	126.61922	 49.78345	 90.37250	  5.37162	164.66258	702.69000	 40.10	
 13.609	-151.210	154.46651	 22.91425	123.08752	 43.28242	 97.69267	  5.29610	164.65535	702.76001	 40.10	
 13.611	-143.999	154.47620	 26.67290	118.54247	 37.32569	104.66307	  5.31560	164.67693	702.84998	 40.00	
 13.601	-136.825	154.33173	 30.99121	113.09495	 32.27940	111.19452	  5.36701	164.66052	702.83002	 40.00	
 13.596	-129.640	154.09737	 35.75739	107.34515	 27.47354	116.62819	  5.34009	164.65007	702.90002	 40.00	
