FileType=PCF
NHL=14
Date=08/25/17	15:55:46
Facility=APL
Serial=16328-6
Customer=NASA
NP=6
Mach=0.050000
Calibration=1:1
CalPts=490
TstPts=95
PortNumbering=AP Standard
Units=Torr C m/s kg/m^3 deg mm 
Theta[deg]	Phi[deg]	P1[Torr]	P2[Torr]	P3[Torr]	P4[Torr]	P5[Torr]	P6[Torr]	Pt[Torr]	Ps[Abs,Torr]	Ts[C]	
  0.000	  0.000	  1.26472	  0.68518	  0.68163	  0.67652	  0.69486	  0.00421	  1.25617	706.38397	 23.10	
  1.691	128.401	  1.26227	  0.64990	  0.70548	  0.70326	  0.65663	  0.00536	  1.25339	706.53497	 23.10	
  1.692	 77.194	  1.26770	  0.69328	  0.66594	  0.71685	  0.65130	  0.00604	  1.25972	706.54999	 23.10	
  1.699	 26.182	  1.26310	  0.72685	  0.62854	  0.68301	  0.67287	  0.00178	  1.25490	706.53601	 23.10	
  1.699	-26.182	  1.26427	  0.73073	  0.62633	  0.63909	  0.72183	  0.00444	  1.25573	706.52399	 23.10	
  1.692	-77.194	  1.26496	  0.69130	  0.66050	  0.61170	  0.75255	  0.00488	  1.25746	706.44299	 23.10	
  1.691	-128.401	  1.26210	  0.64392	  0.70659	  0.61786	  0.74011	  0.00508	  1.25372	706.59100	 23.10	
  1.700	180.000	  1.26200	  0.62760	  0.72837	  0.66181	  0.69326	  0.00497	  1.25435	706.45599	 23.10	
  3.400	180.000	  1.26025	  0.55818	  0.79105	  0.65445	  0.68724	  0.00202	  1.25391	708.16699	 23.10	
  3.388	-152.325	  1.26017	  0.56841	  0.77661	  0.59878	  0.74484	  0.00216	  1.25472	706.55200	 23.10	
  3.397	-124.529	  1.25849	  0.60278	  0.73424	  0.55770	  0.79013	  0.00138	  1.25272	706.62299	 23.10	
  3.399	-96.763	  1.26145	  0.65582	  0.68132	  0.53969	  0.81573	  0.00147	  1.25661	707.98999	 23.10	
  3.394	-69.283	  1.26356	  0.71519	  0.62501	  0.54830	  0.80879	 -0.00094	  1.25852	707.55701	 23.10	
  3.400	-41.398	  1.26239	  0.76470	  0.58031	  0.57852	  0.77383	  0.00136	  1.25702	708.06097	 23.10	
  3.401	-14.021	  1.26197	  0.79311	  0.55692	  0.62482	  0.72157	  0.00210	  1.25567	706.50403	 23.10	
  3.401	 14.021	  1.26301	  0.79643	  0.55558	  0.68311	  0.66371	  0.00193	  1.25614	706.39801	 23.10	
  3.400	 41.398	  1.26076	  0.76534	  0.58050	  0.73465	  0.61384	  0.00224	  1.25334	706.58398	 23.10	
  3.394	 69.283	  1.26237	  0.71805	  0.62658	  0.77116	  0.58593	  0.00318	  1.25554	706.51202	 23.10	
  3.399	 96.763	  1.26107	  0.65829	  0.68212	  0.77720	  0.57922	  0.00206	  1.25399	708.09698	 23.10	
  3.397	124.529	  1.26196	  0.61082	  0.73677	  0.75657	  0.59747	  0.00416	  1.25527	708.01001	 23.10	
  3.388	152.325	  1.25667	  0.57295	  0.77262	  0.70876	  0.63258	  0.00256	  1.25018	706.55798	 23.10	
  5.099	161.165	  1.25413	  0.49917	  0.83996	  0.70609	  0.62034	 -0.00245	  1.25374	706.43903	 23.10	
  5.109	142.013	  1.25711	  0.52831	  0.81000	  0.76408	  0.57194	 -0.00213	  1.25517	708.17798	 23.10	
  5.095	123.033	  1.25448	  0.56973	  0.76107	  0.80558	  0.53460	 -0.00203	  1.25290	706.58002	 23.10	
  5.105	104.191	  1.25753	  0.62330	  0.70480	  0.83363	  0.51415	 -0.00192	  1.25558	708.13599	 23.10	
  5.093	 85.207	  1.26271	  0.68584	  0.64592	  0.84153	  0.51185	 -0.00175	  1.25994	706.96100	 23.10	
  5.104	 66.290	  1.25696	  0.74194	  0.58547	  0.82268	  0.52085	 -0.00342	  1.25378	707.70001	 23.10	
  5.094	 47.331	  1.26059	  0.79840	  0.53993	  0.78866	  0.55479	 -0.00171	  1.25931	708.05200	 23.10	
  5.089	 28.397	  1.25771	  0.83555	  0.50374	  0.73666	  0.59814	 -0.00219	  1.25561	708.08899	 23.10	
  5.096	  9.576	  1.26000	  0.85681	  0.48668	  0.67796	  0.65487	 -0.00284	  1.25802	708.04102	 23.10	
  5.096	 -9.576	  1.25876	  0.85684	  0.48678	  0.61604	  0.71756	 -0.00304	  1.25772	707.74902	 23.10	
  5.089	-28.397	  1.25768	  0.83320	  0.50377	  0.56064	  0.77368	 -0.00466	  1.25794	707.98499	 23.10	
  5.094	-47.331	  1.25572	  0.79070	  0.53582	  0.51308	  0.82353	 -0.00566	  1.25745	706.47302	 23.10	
  5.104	-66.290	  1.25640	  0.73746	  0.58551	  0.48373	  0.86024	 -0.00647	  1.25763	707.96997	 23.10	
  5.093	-85.207	  1.25601	  0.67695	  0.64320	  0.47033	  0.87582	 -0.00630	  1.25829	706.47400	 23.00	
  5.105	-104.191	  1.25493	  0.61748	  0.70421	  0.47332	  0.87019	 -0.00466	  1.25690	708.08899	 23.10	
  5.095	-123.033	  1.25507	  0.56430	  0.76239	  0.49640	  0.84329	 -0.00326	  1.25670	708.07397	 23.00	
  5.109	-142.013	  1.25485	  0.52047	  0.81105	  0.53396	  0.79831	 -0.00258	  1.25679	708.09802	 23.00	
  5.099	-161.165	  1.25432	  0.49672	  0.84173	  0.58671	  0.74171	 -0.00184	  1.25486	706.30701	 23.00	
  5.100	180.000	  1.25880	  0.49119	  0.85458	  0.64754	  0.68286	 -0.00158	  1.25952	706.33197	 23.10	
  6.800	180.000	  1.24517	  0.41665	  0.91079	  0.63456	  0.66903	 -0.00777	  1.25695	706.38397	 23.10	
  6.796	-166.229	  1.24453	  0.41782	  0.90455	  0.57365	  0.72797	 -0.01005	  1.25717	708.06897	 23.00	
  6.808	-152.311	  1.24439	  0.43921	  0.88082	  0.52104	  0.78778	 -0.00764	  1.25756	706.31799	 23.00	
  6.795	-138.383	  1.24137	  0.46739	  0.84020	  0.47052	  0.83850	 -0.01033	  1.25476	707.84900	 23.00	
  6.792	-124.591	  1.23937	  0.50507	  0.79258	  0.43063	  0.88072	 -0.01332	  1.25400	708.13000	 23.00	
  6.787	-110.754	  1.24075	  0.56020	  0.73534	  0.40842	  0.91284	 -0.01151	  1.25636	706.33002	 23.00	
  6.800	-96.985	  1.23879	  0.61699	  0.67327	  0.39525	  0.92757	 -0.01356	  1.25317	708.08002	 23.00	
  6.800	-83.015	  1.24407	  0.67947	  0.61555	  0.39718	  0.93133	 -0.01399	  1.25776	706.30103	 23.00	
  6.787	-69.246	  1.24381	  0.74048	  0.55832	  0.41053	  0.91634	 -0.01257	  1.25729	707.20801	 23.00	
  6.792	-55.409	  1.24179	  0.79429	  0.50638	  0.43406	  0.88508	 -0.01446	  1.25446	706.27002	 23.00	
  6.795	-41.617	  1.24405	  0.84397	  0.46533	  0.47093	  0.84440	 -0.01294	  1.25618	706.36401	 23.00	
  6.808	-27.689	  1.24379	  0.88186	  0.43395	  0.51930	  0.79076	 -0.01103	  1.25476	707.89099	 23.00	
  6.796	-13.771	  1.24540	  0.90656	  0.41682	  0.57505	  0.73242	 -0.01079	  1.25507	707.79303	 23.00	
  6.800	  0.000	  1.24633	  0.91611	  0.41023	  0.63317	  0.67311	 -0.01094	  1.25570	707.09900	 23.00	
  6.796	 13.771	  1.24215	  0.90428	  0.41513	  0.69043	  0.61130	 -0.01017	  1.25040	706.33002	 23.00	
  6.808	 27.689	  1.25140	  0.88781	  0.43824	  0.75557	  0.55978	 -0.01033	  1.25823	707.77301	 23.00	
  6.795	 41.617	  1.24559	  0.84858	  0.46741	  0.80432	  0.51236	 -0.00839	  1.25211	706.37701	 23.00	
  6.792	 55.409	  1.25115	  0.80382	  0.51182	  0.85010	  0.47835	 -0.00796	  1.25750	707.86902	 23.00	
  6.787	 69.246	  1.24488	  0.74575	  0.55917	  0.87818	  0.44984	 -0.00823	  1.25094	707.83899	 23.00	
  6.800	 83.015	  1.24629	  0.68653	  0.61516	  0.89410	  0.43658	 -0.00986	  1.25332	707.98102	 23.00	
  6.800	 96.985	  1.24652	  0.62652	  0.67759	  0.89553	  0.43720	 -0.00927	  1.25243	707.57397	 23.00	
  6.787	110.754	  1.24377	  0.56796	  0.73540	  0.87692	  0.44878	 -0.00913	  1.25052	707.74902	 23.00	
  6.792	124.591	  1.24786	  0.51907	  0.79368	  0.84868	  0.47482	 -0.01165	  1.25561	707.82098	 23.00	
  6.795	138.383	  1.24811	  0.47811	  0.84314	  0.80710	  0.51096	 -0.00769	  1.25579	706.52100	 23.00	
  6.808	152.311	  1.24646	  0.44469	  0.87985	  0.75441	  0.55571	 -0.00950	  1.25543	707.03601	 23.00	
  6.796	166.229	  1.24602	  0.42526	  0.90360	  0.69585	  0.61012	 -0.00940	  1.25617	707.94299	 23.00	
  8.491	168.704	  1.22673	  0.34964	  0.95482	  0.68187	  0.59058	 -0.01639	  1.25330	707.91699	 22.90	
  8.502	157.493	  1.22691	  0.36555	  0.93493	  0.74072	  0.53423	 -0.01674	  1.25233	708.09100	 22.90	
  8.494	146.194	  1.23564	  0.39612	  0.90883	  0.80271	  0.48820	 -0.01541	  1.25923	708.05200	 22.90	
  8.495	135.039	  1.23343	  0.43182	  0.86409	  0.85253	  0.44447	 -0.01599	  1.25539	707.93903	 22.90	
  8.487	123.723	  1.23337	  0.47270	  0.81306	  0.89314	  0.40717	 -0.02024	  1.25540	707.92798	 22.90	
  8.492	112.575	  1.23601	  0.52605	  0.75662	  0.92598	  0.38419	 -0.01831	  1.25743	707.92297	 22.90	
  8.510	101.220	  1.23195	  0.58237	  0.69412	  0.94517	  0.36611	 -0.01674	  1.25378	707.89801	 22.90	
  8.500	 90.000	  1.23521	  0.64497	  0.63397	  0.95279	  0.36364	 -0.01709	  1.25555	707.91901	 22.90	
  8.510	 78.780	  1.23480	  0.70623	  0.57199	  0.94681	  0.36780	 -0.01698	  1.25587	707.96503	 22.90	
  8.492	 67.425	  1.23647	  0.76849	  0.51516	  0.92736	  0.38518	 -0.01609	  1.25740	708.01300	 22.90	
  8.487	 56.277	  1.23393	  0.82171	  0.46321	  0.89406	  0.40930	 -0.01772	  1.25503	707.24200	 22.90	
  8.495	 44.961	  1.23228	  0.87279	  0.41838	  0.85087	  0.44437	 -0.01489	  1.25395	707.95001	 22.90	
  8.494	 33.806	  1.23081	  0.91224	  0.38290	  0.79894	  0.48702	 -0.01709	  1.25294	706.39398	 22.90	
  8.502	 22.507	  1.23289	  0.94399	  0.35752	  0.74305	  0.53897	 -0.01913	  1.25647	707.96399	 22.90	
  8.491	 11.296	  1.23207	  0.96365	  0.34229	  0.68226	  0.59715	 -0.01927	  1.25565	708.06598	 22.90	
  8.500	  0.000	  1.23299	  0.97034	  0.33562	  0.61817	  0.65882	 -0.01877	  1.25704	708.13599	 22.90	
  8.491	-11.296	  1.23020	  0.95887	  0.34278	  0.55654	  0.71964	 -0.02175	  1.25473	707.96997	 22.90	
  8.502	-22.507	  1.22777	  0.93917	  0.35679	  0.49931	  0.77867	 -0.02037	  1.25334	708.01599	 22.90	
  8.494	-33.806	  1.23443	  0.91106	  0.38542	  0.45039	  0.84087	 -0.02066	  1.26003	707.95898	 22.90	
  8.495	-44.961	  1.23131	  0.86773	  0.41781	  0.40410	  0.88916	 -0.02255	  1.25885	707.95599	 22.90	
  8.487	-56.277	  1.22738	  0.81270	  0.46339	  0.36937	  0.92843	 -0.02298	  1.25549	707.99500	 22.90	
  8.492	-67.425	  1.22410	  0.75517	  0.51117	  0.34209	  0.95744	 -0.02250	  1.25373	707.92603	 22.90	
  8.510	-78.780	  1.22449	  0.69234	  0.56818	  0.32491	  0.97666	 -0.02310	  1.25558	708.05701	 22.90	
  8.500	-90.000	  1.22382	  0.63091	  0.62939	  0.31955	  0.98326	 -0.02295	  1.25526	708.12000	 22.90	
  8.510	-101.220	  1.22364	  0.57020	  0.69254	  0.32513	  0.97627	 -0.02135	  1.25516	707.96503	 22.90	
  8.492	-112.575	  1.22976	  0.51619	  0.75747	  0.34442	  0.95984	 -0.01910	  1.26077	706.24902	 22.90	
  8.487	-123.723	  1.22717	  0.46291	  0.81361	  0.36733	  0.92701	 -0.01854	  1.25910	707.87799	 22.90	
  8.495	-135.039	  1.22517	  0.41857	  0.86362	  0.40256	  0.88309	 -0.01841	  1.25620	708.03601	 22.90	
  8.494	-146.194	  1.23080	  0.38732	  0.90776	  0.44847	  0.83578	 -0.01661	  1.25995	707.03699	 22.90	
  8.502	-157.493	  1.22844	  0.35957	  0.93823	  0.49920	  0.77596	 -0.01607	  1.25850	707.86401	 22.90	
  8.491	-168.704	  1.22931	  0.34616	  0.95630	  0.55599	  0.71535	 -0.01611	  1.25737	707.88000	 22.90	
  8.500	180.000	  1.23002	  0.34110	  0.96462	  0.61792	  0.65299	 -0.01713	  1.25760	706.22900	 22.90	
 10.200	180.000	  1.21041	  0.26691	  1.01509	  0.60073	  0.63542	 -0.02517	  1.25868	706.21503	 22.90	
 10.191	-170.497	  1.21285	  0.27255	  1.01150	  0.54086	  0.69937	 -0.02414	  1.26137	706.91302	 22.90	
 10.210	-161.034	  1.20807	  0.28264	  0.99263	  0.48022	  0.75865	 -0.02378	  1.25809	706.57703	 22.90	
 10.194	-151.526	  1.21078	  0.30413	  0.96604	  0.42434	  0.82265	 -0.02602	  1.26114	706.95801	 22.90	
 10.190	-142.105	  1.20771	  0.33298	  0.92695	  0.37631	  0.87516	 -0.02467	  1.25868	707.14801	 22.90	
 10.215	-132.646	  1.20593	  0.36720	  0.88189	  0.33200	  0.92435	 -0.03022	  1.25909	707.94299	 22.90	
 10.203	-123.092	  1.20263	  0.41429	  0.82458	  0.29960	  0.96292	 -0.02568	  1.25409	707.86102	 22.90	
 10.192	-113.678	  1.20564	  0.46606	  0.77006	  0.27372	  0.99853	 -0.02790	  1.25804	707.63501	 22.80	
 10.208	-104.249	  1.21060	  0.52382	  0.71247	  0.25724	  1.02616	 -0.03094	  1.26352	707.89203	 22.90	
 10.210	-94.801	  1.20490	  0.57961	  0.64666	  0.24497	  1.03322	 -0.03453	  1.25860	707.82098	 22.90	
 10.210	-85.199	  1.20216	  0.64315	  0.58007	  0.24569	  1.03009	 -0.03285	  1.25516	707.88599	 22.90	
 10.208	-75.751	  1.20387	  0.70693	  0.51961	  0.25438	  1.02095	 -0.03377	  1.25537	707.84601	 22.90	
 10.192	-66.322	  1.21100	  0.77237	  0.46446	  0.27305	  1.00476	 -0.03400	  1.26160	707.80701	 22.80	
 10.203	-56.908	  1.20996	  0.82854	  0.41446	  0.30041	  0.97068	 -0.03257	  1.25891	707.73700	 22.80	
 10.215	-47.354	  1.20923	  0.88322	  0.36719	  0.33378	  0.92967	 -0.03095	  1.25759	707.84900	 22.80	
 10.190	-37.895	  1.20829	  0.92718	  0.33025	  0.37589	  0.87817	 -0.03056	  1.25571	707.84698	 22.90	
 10.194	-28.474	  1.21016	  0.96603	  0.30219	  0.42604	  0.82467	 -0.02847	  1.25576	707.75897	 22.90	
 10.210	-18.966	  1.21415	  0.99657	  0.27941	  0.48167	  0.76580	 -0.02807	  1.25960	707.75897	 22.90	
 10.191	 -9.503	  1.21470	  1.01522	  0.26724	  0.54052	  0.70451	 -0.02809	  1.26053	707.88599	 22.90	
 10.200	  0.000	  1.20903	  1.01679	  0.26042	  0.59834	  0.63856	 -0.02834	  1.25336	707.83197	 22.90	
 10.191	  9.503	  1.21154	  1.01495	  0.26542	  0.66356	  0.57742	 -0.02623	  1.25487	707.86102	 22.80	
 10.210	 18.966	  1.21314	  0.99963	  0.27937	  0.72751	  0.51956	 -0.02470	  1.25540	707.84100	 22.80	
 10.194	 28.474	  1.21463	  0.97298	  0.30241	  0.78880	  0.46563	 -0.02569	  1.25622	707.85999	 22.80	
 10.190	 37.895	  1.21976	  0.94122	  0.33274	  0.84747	  0.41871	 -0.02498	  1.26145	707.75299	 22.80	
 10.215	 47.354	  1.21133	  0.89018	  0.36740	  0.88991	  0.37429	 -0.02516	  1.25100	707.79401	 22.80	
 10.203	 56.908	  1.21736	  0.84135	  0.41489	  0.93610	  0.34224	 -0.02439	  1.25665	707.79303	 22.80	
 10.192	 66.322	  1.21973	  0.78366	  0.46910	  0.96940	  0.31809	 -0.02514	  1.25812	707.90302	 22.80	
 10.208	 75.751	  1.21577	  0.72205	  0.52219	  0.98979	  0.29765	 -0.02571	  1.25526	707.81000	 22.80	
 10.210	 85.199	  1.22480	  0.66388	  0.58662	  1.00869	  0.29112	 -0.02801	  1.26341	707.88300	 22.80	
 10.210	 94.801	  1.21649	  0.59531	  0.64833	  1.00255	  0.28838	 -0.02636	  1.25544	707.86401	 22.80	
 10.208	104.249	  1.21887	  0.53725	  0.71157	  0.99313	  0.29859	 -0.02800	  1.25897	707.92798	 22.80	
 10.192	113.678	  1.22088	  0.48116	  0.77402	  0.97126	  0.31590	 -0.02722	  1.26033	707.88599	 22.80	
 10.203	123.092	  1.21624	  0.42825	  0.82977	  0.93714	  0.33973	 -0.02705	  1.25771	707.99298	 22.80	
 10.215	132.646	  1.21769	  0.38097	  0.88525	  0.89752	  0.37250	 -0.02752	  1.26046	707.81799	 22.80	
 10.190	142.105	  1.21186	  0.34415	  0.92591	  0.84415	  0.41375	 -0.02435	  1.25428	707.75098	 22.80	
 10.194	151.526	  1.20806	  0.30927	  0.96067	  0.78446	  0.45956	 -0.02514	  1.25240	707.71399	 22.80	
 10.210	161.034	  1.21262	  0.29030	  0.99225	  0.72907	  0.51639	 -0.02390	  1.25656	707.80701	 22.80	
 10.191	170.497	  1.20654	  0.27352	  1.00427	  0.66303	  0.57038	 -0.02589	  1.25272	707.81500	 22.80	
 11.899	171.783	  1.18556	  0.20025	  1.05415	  0.64500	  0.55084	 -0.03400	  1.25630	707.89502	 22.80	
 11.890	163.610	  1.18687	  0.21267	  1.04015	  0.70755	  0.49271	 -0.03330	  1.25684	707.77399	 22.80	
 11.889	155.445	  1.18807	  0.23209	  1.01647	  0.76893	  0.43843	 -0.03223	  1.25675	707.80103	 22.80	
 11.909	147.299	  1.18438	  0.25655	  0.98072	  0.82634	  0.38495	 -0.03562	  1.25164	707.65802	 22.80	
 11.902	139.148	  1.19059	  0.29040	  0.94475	  0.88307	  0.34123	 -0.03590	  1.25808	707.78699	 22.80	
 11.894	130.867	  1.19406	  0.33299	  0.89776	  0.93366	  0.30490	 -0.03657	  1.25935	707.78497	 22.80	
 11.897	122.732	  1.18848	  0.37458	  0.84046	  0.97098	  0.26821	 -0.03860	  1.25336	707.81299	 22.80	
 11.903	114.597	  1.19292	  0.42947	  0.78327	  1.00656	  0.24495	 -0.03816	  1.25698	707.78003	 22.80	
 11.893	106.346	  1.19224	  0.48544	  0.72097	  1.02984	  0.22695	 -0.03757	  1.25512	707.74597	 22.80	
 11.892	 98.155	  1.19281	  0.54470	  0.65869	  1.04463	  0.21581	 -0.03831	  1.25579	707.66901	 22.80	
 11.900	 90.000	  1.19383	  0.60710	  0.59473	  1.04999	  0.21244	 -0.03849	  1.25636	707.71997	 22.80	
 11.892	 81.845	  1.19380	  0.67039	  0.53404	  1.04510	  0.21809	 -0.03681	  1.25625	707.71997	 22.80	
 11.893	 73.654	  1.19394	  0.73342	  0.47416	  1.03053	  0.22989	 -0.03683	  1.25613	707.75098	 22.80	
 11.903	 65.403	  1.19404	  0.79702	  0.41565	  1.00684	  0.24758	 -0.03413	  1.25786	707.75702	 22.80	
 11.897	 57.268	  1.19292	  0.85301	  0.36657	  0.97226	  0.27362	 -0.03353	  1.25591	707.60797	 22.80	
 11.894	 49.133	  1.19381	  0.90794	  0.32077	  0.93210	  0.30787	 -0.03113	  1.25669	707.59302	 22.80	
 11.902	 40.852	  1.18884	  0.95233	  0.27933	  0.88074	  0.34530	 -0.03235	  1.25312	707.64099	 22.80	
 11.909	 32.701	  1.18573	  0.98930	  0.24644	  0.82534	  0.38946	 -0.03343	  1.25198	707.70300	 22.80	
 11.889	 24.555	  1.18277	  1.01870	  0.22090	  0.76406	  0.44031	 -0.03382	  1.24878	707.71399	 22.80	
 11.890	 16.390	  1.18063	  1.04034	  0.20253	  0.70199	  0.49389	 -0.03441	  1.24762	707.66699	 22.80	
 11.899	  8.217	  1.18391	  1.05644	  0.19119	  0.64043	  0.55455	 -0.03848	  1.25170	707.80701	 22.80	
 11.900	  0.000	  1.18347	  1.06090	  0.18718	  0.57730	  0.61628	 -0.03610	  1.25177	707.69800	 22.80	
 11.899	 -8.217	  1.18502	  1.05701	  0.19064	  0.51665	  0.67968	 -0.03674	  1.25421	707.73499	 22.80	
 11.890	-16.390	  1.18603	  1.04302	  0.20143	  0.45799	  0.74307	 -0.03704	  1.25658	707.75403	 22.80	
 11.889	-24.555	  1.18767	  1.01976	  0.22003	  0.40296	  0.80544	 -0.03604	  1.25926	707.66400	 22.80	
 11.909	-32.701	  1.18834	  0.98634	  0.24746	  0.35098	  0.86597	 -0.03693	  1.26055	707.80499	 22.80	
 11.902	-40.852	  1.18622	  0.94436	  0.27971	  0.30590	  0.91672	 -0.03980	  1.25805	707.71802	 22.80	
 11.894	-49.133	  1.18127	  0.89118	  0.31912	  0.26571	  0.96128	 -0.04146	  1.25444	707.73901	 22.80	
 11.897	-57.268	  1.18177	  0.83854	  0.36328	  0.23143	  1.00345	 -0.04131	  1.25654	707.80499	 22.70	
 11.903	-65.403	  1.18146	  0.77954	  0.41391	  0.20370	  1.03701	 -0.04162	  1.25820	707.79797	 22.80	
 11.893	-73.654	  1.18271	  0.71844	  0.47114	  0.18714	  1.06097	 -0.04337	  1.25997	707.72601	 22.70	
 11.892	-81.845	  1.17362	  0.65050	  0.52646	  0.17443	  1.06700	 -0.04292	  1.25090	707.87500	 22.70	
 11.900	-90.000	  1.17463	  0.58827	  0.58838	  0.16954	  1.07284	 -0.04228	  1.25210	707.65900	 22.70	
 11.892	-98.155	  1.17480	  0.52714	  0.65353	  0.17580	  1.06680	 -0.04152	  1.25315	707.68298	 22.70	
 11.893	-106.346	  1.17440	  0.46665	  0.71582	  0.18374	  1.05352	 -0.04020	  1.25431	707.75098	 22.70	
 11.903	-114.597	  1.17422	  0.41195	  0.77768	  0.20317	  1.02967	 -0.03901	  1.25254	707.76801	 22.70	
 11.897	-122.732	  1.17455	  0.36110	  0.83604	  0.22895	  0.99621	 -0.03622	  1.25251	707.70801	 22.70	
 11.894	-130.867	  1.17716	  0.31876	  0.89081	  0.26260	  0.95804	 -0.03547	  1.25498	707.70001	 22.70	
 11.902	-139.148	  1.17304	  0.27758	  0.93724	  0.30204	  0.90497	 -0.03552	  1.25045	707.72803	 22.70	
 11.909	-147.299	  1.17822	  0.24544	  0.98188	  0.34642	  0.85627	 -0.03665	  1.25583	707.73401	 22.70	
 11.889	-155.445	  1.18091	  0.22180	  1.01539	  0.39934	  0.79881	 -0.03768	  1.25801	707.66602	 22.70	
 11.890	-163.610	  1.18049	  0.20543	  1.03838	  0.45704	  0.73656	 -0.03130	  1.25491	707.78400	 22.70	
 11.899	-171.783	  1.18576	  0.19590	  1.05680	  0.51845	  0.67612	 -0.03216	  1.25979	707.77600	 22.70	
 11.900	180.000	  1.18533	  0.19179	  1.06087	  0.57945	  0.61223	 -0.03461	  1.25928	707.69702	 22.70	
 13.600	180.000	  1.15969	  0.12107	  1.10454	  0.55807	  0.59018	 -0.04634	  1.26186	707.71997	 22.70	
 13.608	-172.853	  1.15597	  0.12412	  1.09750	  0.49593	  0.65127	 -0.04315	  1.25928	707.67297	 22.70	
 13.611	-165.583	  1.15388	  0.12974	  1.08495	  0.43454	  0.71316	 -0.04405	  1.25954	707.54199	 22.70	
 13.601	-158.353	  1.15511	  0.14698	  1.06414	  0.37791	  0.77773	 -0.04294	  1.26071	707.80200	 22.70	
 13.609	-151.210	  1.14842	  0.16514	  1.03187	  0.32364	  0.83292	 -0.04465	  1.25540	707.70801	 22.70	
 13.611	-143.999	  1.14620	  0.19120	  0.99258	  0.27295	  0.88785	 -0.04528	  1.25408	707.72198	 22.70	
 13.601	-136.825	  1.15201	  0.22776	  0.95296	  0.23179	  0.94614	 -0.04595	  1.26094	707.76801	 22.70	
 13.596	-129.640	  1.14494	  0.26243	  0.89957	  0.19078	  0.98737	 -0.04616	  1.25451	707.83899	 22.70	
