FileType=PCF
NHL=14
Date=08/25/17	14:40:00
Facility=APL
Serial=16328-6
Customer=NASA
NP=6
Mach=0.150000
Calibration=1:1
CalPts=490
TstPts=95
PortNumbering=AP Standard
Units=Torr C m/s kg/m^3 deg mm 
Theta[deg]	Phi[deg]	P1[Torr]	P2[Torr]	P3[Torr]	P4[Torr]	P5[Torr]	P6[Torr]	Pt[Torr]	Ps[Abs,Torr]	Ts[C]	
  0.000	  0.000	 11.00875	  5.80029	  5.76206	  5.64831	  5.94646	  0.08885	 10.99513	706.96600	 23.80	
  1.691	128.401	 11.00830	  5.46542	  6.08477	  6.06517	  5.51512	  0.09054	 10.99667	707.05603	 23.80	
  1.692	 77.194	 11.03777	  5.94068	  5.64105	  6.18752	  5.43267	  0.09062	 11.02758	706.91803	 23.80	
  1.699	 26.182	 11.01171	  6.28937	  5.26113	  5.88310	  5.69998	  0.08272	 10.99831	707.15503	 23.70	
  1.699	-26.182	 10.99384	  6.26683	  5.25533	  5.38485	  6.17134	  0.08137	 10.98376	707.02197	 23.80	
  1.692	-77.194	 11.00649	  5.89812	  5.62542	  5.10622	  6.46074	  0.07515	 10.99409	707.05603	 23.80	
  1.691	-128.401	 10.99100	  5.44040	  6.07507	  5.19613	  6.35434	  0.08366	 10.98076	707.09003	 23.80	
  1.700	180.000	 11.01632	  5.25582	  6.29981	  5.62999	  5.94594	  0.08806	 11.00898	707.10101	 23.80	
  3.400	180.000	 10.98201	  4.67794	  6.80333	  5.56055	  5.88689	  0.05031	 10.98959	707.10303	 23.80	
  3.388	-152.325	 10.99379	  4.79578	  6.67737	  5.07522	  6.39863	  0.04814	 11.00636	707.06097	 23.80	
  3.397	-124.529	 10.98339	  5.09840	  6.32704	  4.69503	  6.79194	  0.04486	 11.00006	707.21002	 23.80	
  3.399	-96.763	 10.98272	  5.56993	  5.81524	  4.51638	  6.98083	  0.03238	 11.00008	707.06097	 23.80	
  3.394	-69.283	 10.98232	  6.08664	  5.30407	  4.57438	  6.91799	  0.02561	 10.99392	706.99701	 23.80	
  3.400	-41.398	 10.98965	  6.56018	  4.88105	  4.86986	  6.61850	  0.05249	 11.00071	707.06097	 23.80	
  3.401	-14.021	 10.98925	  6.81509	  4.65792	  5.31363	  6.14773	  0.04187	 10.99638	706.98297	 23.80	
  3.401	 14.021	 11.00163	  6.83774	  4.67259	  5.86296	  5.62648	  0.06210	 11.00332	707.06702	 23.80	
  3.400	 41.398	 11.01585	  6.58115	  4.91270	  6.33299	  5.18974	  0.04511	 11.01440	707.20203	 23.80	
  3.394	 69.283	 11.02959	  6.17415	  5.32793	  6.64704	  4.92479	  0.06921	 11.02796	707.10999	 23.80	
  3.399	 96.763	 11.00750	  5.64152	  5.83102	  6.70541	  4.84805	  0.07263	 11.00769	707.02197	 23.80	
  3.397	124.529	 10.99243	  5.15585	  6.31625	  6.49586	  5.01212	  0.05711	 10.99352	707.05103	 23.80	
  3.388	152.325	 10.99006	  4.81062	  6.68447	  6.09449	  5.37973	  0.07087	 10.99272	707.05103	 23.80	
  5.099	161.165	 10.96005	  4.14639	  7.26246	  6.05129	  5.25884	  0.01593	 11.02003	707.04498	 23.80	
  5.109	142.013	 10.95604	  4.39572	  6.97782	  6.55834	  4.79307	  0.01734	 11.00696	707.01099	 23.80	
  5.095	123.033	 10.96813	  4.78200	  6.55402	  6.94384	  4.47067	  0.01088	 11.01425	706.97400	 23.80	
  5.105	104.191	 10.96793	  5.27424	  6.02882	  7.18448	  4.26802	  0.01094	 11.00751	706.97998	 23.80	
  5.093	 85.207	 10.96926	  5.81991	  5.47624	  7.22836	  4.23514	  0.01647	 11.00687	706.95099	 23.80	
  5.104	 66.290	 10.96292	  6.35564	  4.94921	  7.08630	  4.34572	  0.01480	 11.00053	707.21100	 23.80	
  5.094	 47.331	 10.94841	  6.82585	  4.50713	  6.76302	  4.61524	  0.01894	 10.99039	707.17200	 23.80	
  5.089	 28.397	 10.94255	  7.17889	  4.18703	  6.29578	  5.03053	  0.01279	 10.98945	707.07599	 23.80	
  5.096	  9.576	 10.96586	  7.38496	  4.02699	  5.78092	  5.53630	  0.01625	 11.01913	707.17902	 23.70	
  5.096	 -9.576	 10.95246	  7.36072	  4.02192	  5.20598	  6.09056	 -0.00178	 11.00954	707.22803	 23.70	
  5.089	-28.397	 10.93253	  7.14948	  4.17943	  4.70045	  6.60403	 -0.01011	 10.99531	706.95697	 23.70	
  5.094	-47.331	 10.93169	  6.78838	  4.48773	  4.28409	  7.06364	 -0.01721	 11.00088	707.05902	 23.70	
  5.104	-66.290	 10.92277	  6.30010	  4.92268	  3.99249	  7.38525	 -0.02733	 11.00441	707.03101	 23.70	
  5.093	-85.207	 10.91583	  5.75065	  5.44652	  3.86197	  7.52244	 -0.02743	 10.99789	707.05499	 23.70	
  5.105	-104.191	 10.91988	  5.20264	  6.01493	  3.90324	  7.48012	 -0.01368	 11.00377	707.07599	 23.70	
  5.095	-123.033	 10.92157	  4.72038	  6.53620	  4.11461	  7.23382	 -0.00125	 11.00605	707.18597	 23.70	
  5.109	-142.013	 10.91526	  4.33520	  6.96638	  4.46383	  6.83374	  0.00279	 10.99483	707.05499	 23.70	
  5.099	-161.165	 10.94374	  4.12042	  7.25868	  4.94971	  6.34357	  0.01545	 11.01410	707.24103	 23.70	
  5.100	180.000	 10.94253	  4.05373	  7.34818	  5.47955	  5.80019	  0.01575	 11.00753	707.10999	 23.70	
  6.800	180.000	 10.85935	  3.39703	  7.87144	  5.37809	  5.68936	 -0.05013	 11.02547	707.04700	 23.70	
  6.796	-166.229	 10.82216	  3.43295	  7.77931	  4.82987	  6.21461	 -0.04801	 10.99249	707.09003	 23.70	
  6.808	-152.311	 10.82846	  3.59722	  7.58294	  4.33686	  6.74649	 -0.05856	 11.01186	707.06702	 23.70	
  6.795	-138.383	 10.82286	  3.87607	  7.24410	  3.90065	  7.22251	 -0.06484	 11.01096	707.18799	 23.70	
  6.792	-124.591	 10.81504	  4.25007	  6.80791	  3.55975	  7.60378	 -0.06831	 11.01079	707.12097	 23.70	
  6.787	-110.754	 10.82802	  4.71044	  6.31549	  3.33678	  7.88311	 -0.08635	 11.02580	707.18903	 23.70	
  6.800	-96.985	 10.81784	  5.22466	  5.76385	  3.21578	  8.01766	 -0.10079	 11.00983	707.14899	 23.70	
  6.800	-83.015	 10.81575	  5.77358	  5.20957	  3.22189	  8.01348	 -0.10717	 11.00390	707.07001	 23.70	
  6.787	-69.246	 10.84422	  6.32476	  4.70719	  3.35107	  7.89532	 -0.10647	 11.03090	707.07800	 23.70	
  6.792	-55.409	 10.83555	  6.82705	  4.23572	  3.57740	  7.62179	 -0.10146	 11.01280	707.17200	 23.70	
  6.795	-41.617	 10.83745	  7.25911	  3.85912	  3.91469	  7.23939	 -0.08822	 11.00535	707.12402	 23.70	
  6.808	-27.689	 10.84887	  7.61076	  3.56901	  4.34429	  6.77063	 -0.07540	 11.01289	707.12299	 23.70	
  6.796	-13.771	 10.84751	  7.81644	  3.40269	  4.84318	  6.24398	 -0.07175	 11.00468	707.03003	 23.70	
  6.800	  0.000	 10.84388	  7.89191	  3.34468	  5.37488	  5.69692	 -0.06653	 10.99143	707.01898	 23.70	
  6.796	 13.771	 10.86726	  7.84202	  3.41184	  5.94077	  5.16992	 -0.05872	 11.01276	707.03400	 23.70	
  6.808	 27.689	 10.87395	  7.64864	  3.58552	  6.47430	  4.67881	 -0.05731	 11.01182	707.07800	 23.70	
  6.795	 41.617	 10.87361	  7.31678	  3.87685	  6.93686	  4.26831	 -0.05051	 11.00298	706.98199	 23.70	
  6.792	 55.409	 10.87149	  6.88942	  4.25538	  7.31687	  3.93850	 -0.04316	 10.99619	707.07202	 23.70	
  6.787	 69.246	 10.88743	  6.40381	  4.72095	  7.59332	  3.72131	 -0.04132	 11.01015	707.13800	 23.70	
  6.800	 83.015	 10.89068	  5.86843	  5.23234	  7.74615	  3.59326	 -0.05592	 11.01178	706.96100	 23.70	
  6.800	 96.985	 10.89180	  5.31444	  5.78896	  7.74629	  3.58890	 -0.05969	 11.01708	707.08698	 23.70	
  6.787	110.754	 10.89058	  4.80420	  6.32688	  7.60346	  3.70316	 -0.05763	 11.01477	706.95203	 23.70	
  6.792	124.591	 10.86650	  4.33517	  6.81528	  7.31591	  3.92143	 -0.05550	 10.99785	706.97699	 23.70	
  6.795	138.383	 10.85624	  3.94938	  7.24168	  6.92405	  4.24662	 -0.04499	 10.99073	707.08398	 23.70	
  6.808	152.311	 10.86637	  3.65492	  7.58943	  6.46644	  4.66109	 -0.04609	 11.01235	707.08197	 23.70	
  6.796	166.229	 10.84914	  3.47093	  7.78723	  5.92816	  5.14977	 -0.04671	 11.00767	706.99200	 23.70	
  8.491	168.704	 10.70964	  2.79285	  8.27369	  5.80766	  4.99539	 -0.12971	 11.00832	707.01599	 23.70	
  8.502	157.493	 10.72416	  2.94101	  8.11306	  6.36120	  4.48761	 -0.12021	 11.01408	707.14801	 23.60	
  8.494	146.194	 10.74896	  3.19721	  7.84221	  6.88733	  4.03860	 -0.11919	 11.02479	706.92603	 23.60	
  8.495	135.039	 10.74656	  3.52094	  7.46119	  7.34525	  3.64102	 -0.13680	 11.01519	707.21100	 23.60	
  8.487	123.723	 10.74371	  3.92642	  6.99617	  7.72019	  3.32291	 -0.14784	 11.00499	707.19702	 23.60	
  8.492	112.575	 10.77022	  4.39678	  6.49945	  8.01813	  3.10164	 -0.15029	 11.02486	707.21600	 23.60	
  8.510	101.220	 10.76009	  4.91199	  5.93929	  8.18894	  2.95522	 -0.15246	 11.00949	707.13397	 23.60	
  8.500	 90.000	 10.75509	  5.46228	  5.37319	  8.23407	  2.92012	 -0.14639	 11.00539	707.06702	 23.60	
  8.510	 78.780	 10.76858	  6.03174	  4.82347	  8.19379	  2.96308	 -0.14027	 11.02119	707.21698	 23.60	
  8.492	 67.425	 10.75898	  6.57326	  4.30103	  8.00741	  3.11001	 -0.12313	 11.01020	707.18597	 23.60	
  8.487	 56.277	 10.74151	  7.06579	  3.83304	  7.72122	  3.33003	 -0.11887	 10.99411	707.11499	 23.60	
  8.495	 44.961	 10.73763	  7.52063	  3.42706	  7.34290	  3.64771	 -0.12932	 10.99924	707.09900	 23.60	
  8.494	 33.806	 10.75645	  7.89767	  3.11958	  6.89686	  4.05502	 -0.13862	 11.02463	707.28601	 23.60	
  8.502	 22.507	 10.74732	  8.18133	  2.87384	  6.37752	  4.51118	 -0.13595	 11.02418	707.12299	 23.60	
  8.491	 11.296	 10.74100	  8.34001	  2.73190	  5.82850	  5.02252	 -0.13719	 11.02376	707.10699	 23.60	
  8.500	  0.000	 10.71595	  8.37656	  2.67350	  5.24384	  5.56583	 -0.15586	 11.00324	707.21997	 23.60	
  8.491	-11.296	 10.72472	  8.31385	  2.72479	  4.69680	  6.12913	 -0.15565	 11.02002	707.01898	 23.60	
  8.502	-22.507	 10.72365	  8.13737	  2.86254	  4.18129	  6.67378	 -0.15769	 11.02577	707.10901	 23.60	
  8.494	-33.806	 10.71100	  7.83780	  3.09850	  3.70050	  7.18992	 -0.16887	 11.01696	707.01898	 23.60	
  8.495	-44.961	 10.71551	  7.46574	  3.41704	  3.29663	  7.64824	 -0.18635	 11.03018	707.17700	 23.60	
  8.487	-56.277	 10.70198	  6.99248	  3.82194	  2.97632	  8.00859	 -0.19205	 11.02348	707.04999	 23.60	
  8.492	-67.425	 10.66708	  6.46318	  4.27091	  2.72867	  8.26526	 -0.20563	 10.99627	707.03601	 23.60	
  8.510	-78.780	 10.66658	  5.91250	  4.79567	  2.57378	  8.44881	 -0.20726	 11.00906	707.04199	 23.60	
  8.500	-90.000	 10.67314	  5.35515	  5.35252	  2.52845	  8.50696	 -0.20268	 11.01949	706.90900	 23.60	
  8.510	-101.220	 10.66211	  4.79833	  5.91367	  2.56703	  8.44250	 -0.19335	 11.01035	706.97198	 23.60	
  8.492	-112.575	 10.67557	  4.28846	  6.47453	  2.72248	  8.27298	 -0.16575	 11.02416	707.02698	 23.60	
  8.487	-123.723	 10.67203	  3.82863	  6.98104	  2.95805	  7.98703	 -0.14496	 11.01483	707.04999	 23.60	
  8.495	-135.039	 10.66670	  3.42361	  7.43562	  3.27113	  7.61142	 -0.14642	 11.00694	707.03601	 23.60	
  8.494	-146.194	 10.66472	  3.10860	  7.80859	  3.67431	  7.15513	 -0.14625	 11.00201	707.02301	 23.60	
  8.502	-157.493	 10.71181	  2.89618	  8.12051	  4.16695	  6.66309	 -0.13423	 11.04070	706.93799	 23.60	
  8.491	-168.704	 10.70207	  2.76447	  8.28074	  4.68361	  6.10643	 -0.12590	 11.01915	706.94299	 23.60	
  8.500	180.000	 10.70850	  2.72401	  8.34158	  5.23858	  5.54311	 -0.13372	 11.01715	706.92902	 23.60	
 10.200	180.000	 10.52478	  2.04847	  8.78698	  5.07733	  5.38152	 -0.22189	 11.01750	707.03900	 23.60	
 10.191	-170.497	 10.52052	  2.07354	  8.74395	  4.51725	  5.94248	 -0.21506	 11.02742	706.97998	 23.60	
 10.210	-161.034	 10.49569	  2.17303	  8.58367	  3.97621	  6.48577	 -0.22361	 11.00888	707.15698	 23.60	
 10.194	-151.526	 10.48802	  2.37240	  8.33068	  3.47419	  7.03074	 -0.23436	 11.01226	707.07202	 23.60	
 10.190	-142.105	 10.49288	  2.64154	  8.00438	  3.03385	  7.53218	 -0.23433	 11.02002	707.12097	 23.60	
 10.215	-132.646	 10.48323	  2.96693	  7.60118	  2.64757	  7.96593	 -0.23503	 11.02248	706.97498	 23.60	
 10.203	-123.092	 10.47091	  3.37619	  7.11513	  2.33077	  8.33286	 -0.23541	 11.01251	707.17102	 23.60	
 10.192	-113.678	 10.48801	  3.85176	  6.60198	  2.09615	  8.64041	 -0.25300	 11.03460	707.04199	 23.60	
 10.208	-104.249	 10.48252	  4.35460	  6.04765	  1.92789	  8.84114	 -0.28260	 11.03116	707.10901	 23.60	
 10.210	-94.801	 10.47985	  4.89508	  5.47692	  1.84382	  8.94101	 -0.29948	 11.02661	706.99902	 23.60	
 10.210	-85.199	 10.48136	  5.47234	  4.89666	  1.84751	  8.94145	 -0.30671	 11.02148	707.02002	 23.60	
 10.208	-75.751	 10.47922	  6.03177	  4.35220	  1.93152	  8.83987	 -0.31181	 11.01170	707.00299	 23.60	
 10.192	-66.322	 10.50650	  6.59431	  3.85166	  2.10756	  8.65370	 -0.30430	 11.02823	706.99200	 23.60	
 10.203	-56.908	 10.49614	  7.11088	  3.37571	  2.34366	  8.35709	 -0.28805	 11.01101	707.06702	 23.60	
 10.215	-47.354	 10.50353	  7.59765	  2.95569	  2.65947	  7.98909	 -0.28065	 11.01000	707.06702	 23.60	
 10.190	-37.895	 10.52880	  8.01803	  2.62471	  3.04970	  7.56252	 -0.26306	 11.02453	706.96100	 23.60	
 10.194	-28.474	 10.52253	  8.34559	  2.35181	  3.48546	  7.06582	 -0.24383	 11.00893	706.96802	 23.50	
 10.210	-18.966	 10.55231	  8.62424	  2.15225	  3.99229	  6.53900	 -0.24104	 11.03391	707.07501	 23.50	
 10.191	 -9.503	 10.53423	  8.75744	  2.03756	  4.51669	  5.97116	 -0.24313	 11.00666	707.07001	 23.60	
 10.200	  0.000	 10.55582	  8.83521	  1.99853	  5.08858	  5.41252	 -0.24536	 11.02545	707.12598	 23.50	
 10.191	  9.503	 10.54694	  8.78718	  2.03754	  5.66202	  4.84771	 -0.23474	 11.01380	707.13702	 23.50	
 10.210	 18.966	 10.55604	  8.64892	  2.16229	  6.22789	  4.32226	 -0.23738	 11.01075	707.10699	 23.50	
 10.194	 28.474	 10.58502	  8.43079	  2.36960	  6.78065	  3.85165	 -0.22272	 11.03624	707.01099	 23.50	
 10.190	 37.895	 10.57282	  8.09364	  2.63987	  7.27622	  3.40307	 -0.21942	 11.01111	706.91602	 23.50	
 10.215	 47.354	 10.58486	  7.70673	  2.98079	  7.73145	  3.02940	 -0.20277	 11.01933	707.16199	 23.50	
 10.203	 56.908	 10.59616	  7.23686	  3.39960	  8.10760	  2.72609	 -0.19228	 11.02412	707.04498	 23.50	
 10.192	 66.322	 10.59804	  6.71707	  3.87271	  8.38634	  2.49989	 -0.20453	 11.01796	707.12299	 23.50	
 10.208	 75.751	 10.59674	  6.17006	  4.37785	  8.58782	  2.32958	 -0.22834	 11.01545	706.93701	 23.50	
 10.210	 85.199	 10.58663	  5.59660	  4.92334	  8.68286	  2.24593	 -0.24915	 11.00414	707.02802	 23.50	
 10.210	 94.801	 10.58857	  5.01921	  5.50369	  8.68850	  2.23504	 -0.25683	 11.01040	706.99200	 23.50	
 10.208	104.249	 10.59326	  4.48562	  6.07065	  8.58887	  2.32168	 -0.25358	 11.01667	707.04700	 23.50	
 10.192	113.678	 10.61851	  3.98557	  6.64016	  8.40501	  2.49383	 -0.24584	 11.04368	707.04401	 23.50	
 10.203	123.092	 10.59061	  3.50607	  7.14609	  8.10395	  2.71054	 -0.23936	 11.02132	707.08698	 23.50	
 10.215	132.646	 10.54732	  3.06842	  7.60027	  7.70987	  2.99471	 -0.23282	 10.99209	707.09302	 23.50	
 10.190	142.105	 10.56182	  2.73401	  8.01737	  7.27339	  3.38216	 -0.20892	 11.01163	707.05603	 23.50	
 10.194	151.526	 10.54835	  2.45255	  8.34065	  6.76021	  3.82248	 -0.19680	 11.00464	706.92102	 23.50	
 10.210	161.034	 10.55735	  2.23946	  8.60264	  6.22708	  4.31087	 -0.20913	 11.02641	707.04199	 23.50	
 10.191	170.497	 10.53802	  2.11074	  8.73829	  5.65869	  4.82847	 -0.21909	 11.01675	707.03699	 23.50	
 11.899	171.783	 10.30032	  1.42524	  9.14482	  5.46985	  4.61997	 -0.31024	 11.00623	707.06097	 23.50	
 11.890	163.610	 10.31597	  1.53645	  9.02398	  6.03928	  4.09703	 -0.29847	 11.00796	707.02002	 23.50	
 11.889	155.445	 10.34410	  1.71413	  8.83058	  6.60888	  3.60238	 -0.28819	 11.02731	707.12299	 23.50	
 11.909	147.299	 10.33165	  1.95387	  8.52411	  7.13256	  3.13270	 -0.29624	 11.00687	707.05499	 23.50	
 11.902	139.148	 10.35778	  2.26535	  8.17238	  7.63005	  2.73344	 -0.31130	 11.02350	707.20300	 23.50	
 11.894	130.867	 10.35478	  2.63371	  7.72976	  8.05057	  2.38398	 -0.32776	 11.00839	707.12402	 23.50	
 11.897	122.732	 10.35992	  3.04798	  7.25045	  8.42336	  2.08636	 -0.33979	 11.00836	707.07898	 23.50	
 11.903	114.597	 10.37093	  3.51515	  6.73207	  8.72685	  1.85522	 -0.35382	 11.01448	707.07501	 23.50	
 11.893	106.346	 10.37197	  4.02616	  6.16733	  8.94066	  1.68634	 -0.35886	 11.00677	707.09302	 23.50	
 11.892	 98.155	 10.38507	  4.57368	  5.60270	  9.07921	  1.59181	 -0.36316	 11.01862	707.00299	 23.50	
 11.900	 90.000	 10.39106	  5.14226	  5.02998	  9.12433	  1.56690	 -0.34829	 11.02079	707.05298	 23.50	
 11.892	 81.845	 10.36692	  5.69859	  4.45892	  9.05268	  1.60993	 -0.32696	 10.99365	707.10999	 23.50	
 11.893	 73.654	 10.38896	  6.27932	  3.92794	  8.94285	  1.71517	 -0.30659	 11.01803	706.93799	 23.50	
 11.903	 65.403	 10.38291	  6.83173	  3.41322	  8.72334	  1.88611	 -0.28268	 11.01623	706.85797	 23.50	
 11.897	 57.268	 10.36042	  7.33397	  2.94693	  8.41240	  2.11656	 -0.26836	 11.00054	707.16901	 23.50	
 11.894	 49.133	 10.37092	  7.81693	  2.54106	  8.05394	  2.41877	 -0.28296	 11.00990	707.09802	 23.50	
 11.902	 40.852	 10.36840	  8.25411	  2.17419	  7.62504	  2.76923	 -0.29297	 11.02317	707.12097	 23.40	
 11.909	 32.701	 10.33641	  8.58637	  1.86874	  7.12649	  3.16004	 -0.31307	 11.00510	707.13202	 23.50	
 11.889	 24.555	 10.34770	  8.88251	  1.64276	  6.60200	  3.63654	 -0.32076	 11.01760	707.03601	 23.50	
 11.890	 16.390	 10.32920	  9.07359	  1.47141	  6.04197	  4.12574	 -0.32182	 11.00553	706.99200	 23.50	
 11.899	  8.217	 10.33180	  9.19927	  1.36853	  5.47932	  4.65738	 -0.33086	 11.01863	707.02698	 23.50	
 11.900	  0.000	 10.32872	  9.23074	  1.33549	  4.89823	  5.22160	 -0.33084	 11.01672	707.09497	 23.50	
 11.899	 -8.217	 10.33543	  9.19094	  1.36175	  4.33677	  5.79069	 -0.33454	 11.03341	707.08698	 23.40	
 11.890	-16.390	 10.31410	  9.02936	  1.46672	  3.79428	  6.34322	 -0.32877	 11.01280	707.10999	 23.50	
 11.889	-24.555	 10.30895	  8.81414	  1.62892	  3.28191	  6.89323	 -0.33230	 11.01668	706.97699	 23.40	
 11.909	-32.701	 10.28570	  8.50145	  1.85535	  2.80768	  7.40495	 -0.33251	 10.99847	707.02802	 23.40	
 11.902	-40.852	 10.30414	  8.15144	  2.15532	  2.40460	  7.89552	 -0.34448	 11.02446	707.00299	 23.50	
 11.894	-49.133	 10.28816	  7.70080	  2.51644	  2.03709	  8.31558	 -0.35347	 11.01595	707.04199	 23.40	
 11.897	-57.268	 10.26354	  7.20203	  2.92345	  1.72555	  8.66890	 -0.37737	 11.00422	707.04999	 23.50	
 11.903	-65.403	 10.26813	  6.68452	  3.38618	  1.48055	  8.97622	 -0.38758	 11.02358	706.95398	 23.50	
 11.893	-73.654	 10.25098	  6.11897	  3.89583	  1.30994	  9.17593	 -0.39846	 11.01346	706.93799	 23.50	
 11.892	-81.845	 10.26340	  5.55891	  4.44186	  1.21061	  9.31161	 -0.40246	 11.03294	706.97998	 23.50	
 11.900	-90.000	 10.24106	  4.97664	  4.99445	  1.17365	  9.33422	 -0.39489	 11.01229	707.11700	 23.40	
 11.892	-98.155	 10.24304	  4.42259	  5.56730	  1.20833	  9.28918	 -0.39043	 11.01969	707.11298	 23.40	
 11.893	-106.346	 10.24243	  3.88822	  6.13420	  1.30598	  9.16334	 -0.36257	 11.02292	707.06097	 23.50	
 11.903	-114.597	 10.23074	  3.37406	  6.68881	  1.46926	  8.94234	 -0.34526	 11.01237	706.96002	 23.40	
 11.897	-122.732	 10.23133	  2.91792	  7.21191	  1.70715	  8.64704	 -0.31936	 11.00844	707.03400	 23.40	
 11.894	-130.867	 10.24626	  2.51248	  7.70165	  2.01686	  8.28502	 -0.31105	 11.01743	706.98297	 23.40	
 11.902	-139.148	 10.26052	  2.16700	  8.14284	  2.38748	  7.86015	 -0.31290	 11.02237	707.06702	 23.40	
 11.909	-147.299	 10.26694	  1.87435	  8.51242	  2.79717	  7.38861	 -0.31872	 11.02928	707.10901	 23.40	
 11.889	-155.445	 10.25940	  1.64899	  8.78978	  3.26138	  6.85587	 -0.32633	 11.00907	707.20502	 23.40	
 11.890	-163.610	 10.27774	  1.49364	  9.01215	  3.78294	  6.30604	 -0.31677	 11.01555	707.09302	 23.40	
 11.899	-171.783	 10.29072	  1.40012	  9.15014	  4.32306	  5.75331	 -0.31093	 11.02001	707.14099	 23.40	
 11.900	180.000	 10.31007	  1.38386	  9.20277	  4.89113	  5.19656	 -0.31291	 11.03091	707.21002	 23.40	
 13.600	180.000	 10.03262	  0.71884	  9.55868	  4.66793	  4.96889	 -0.40795	 11.01519	707.23901	 23.40	
 13.608	-172.853	 10.01104	  0.72495	  9.51456	  4.10637	  5.51236	 -0.40822	 11.00479	707.09302	 23.40	
 13.611	-165.583	 10.02223	  0.79553	  9.42482	  3.56269	  6.09401	 -0.41195	 11.03520	707.20001	 23.40	
 13.601	-158.353	  9.99271	  0.93832	  9.20463	  3.02837	  6.64676	 -0.41384	 11.00734	707.20801	 23.40	
 13.609	-151.210	  9.99863	  1.12329	  8.96306	  2.55544	  7.18732	 -0.41631	 11.02913	707.16901	 23.40	
 13.611	-143.999	  9.97994	  1.37533	  8.62119	  2.11542	  7.68310	 -0.40651	 11.01736	707.16302	 23.40	
 13.601	-136.825	  9.96795	  1.67741	  8.22131	  1.71967	  8.14341	 -0.39618	 11.00972	707.16199	 23.40	
 13.596	-129.640	  9.98152	  2.04039	  7.78569	  1.37825	  8.57692	 -0.39195	 11.02950	707.25897	 23.40	
