FileType=PCF
NHL=14
Date=08/25/17	14:02:06
Facility=APL
Serial=16328-6
Customer=NASA
NP=6
Mach=0.200000
Calibration=1:1
CalPts=490
TstPts=95
PortNumbering=AP Standard
Units=Torr C m/s kg/m^3 deg mm 
Theta[deg]	Phi[deg]	P1[Torr]	P2[Torr]	P3[Torr]	P4[Torr]	P5[Torr]	P6[Torr]	Pt[Torr]	Ps[Abs,Torr]	Ts[C]	
  0.000	  0.000	 19.41952	 10.30680	 10.09501	 10.01723	 10.41055	  0.17922	 19.38617	708.48199	 23.00	
  1.691	128.401	 19.46319	  9.75549	 10.71614	 10.69980	  9.68244	  0.16361	 19.43291	708.26398	 23.00	
  1.692	 77.194	 19.46069	 10.54151	  9.88073	 10.90270	  9.53445	  0.17696	 19.43317	708.33099	 23.00	
  1.699	 26.182	 19.43902	 11.09762	  9.19397	 10.38680	  9.98200	  0.17775	 19.41371	708.34003	 23.00	
  1.699	-26.182	 19.44762	 11.07585	  9.19478	  9.58202	 10.83833	  0.16293	 19.41451	708.38501	 23.00	
  1.692	-77.194	 19.43984	 10.45714	  9.86291	  9.11513	 11.35845	  0.15820	 19.42426	708.40302	 23.00	
  1.691	-128.401	 19.45064	  9.68787	 10.70294	  9.30148	 11.17671	  0.16217	 19.43135	708.36401	 23.00	
  1.700	180.000	 19.46361	  9.35314	 11.09651	  9.98392	 10.40931	  0.17381	 19.44228	708.39301	 23.00	
  3.400	180.000	 19.38444	  8.30048	 12.03130	  9.85178	 10.29650	  0.14579	 19.39445	708.28497	 23.00	
  3.388	-152.325	 19.41288	  8.50313	 11.81600	  9.01664	 11.23346	  0.13406	 19.43262	708.42603	 23.00	
  3.397	-124.529	 19.38986	  9.08870	 11.14304	  8.39112	 11.95789	  0.12656	 19.41202	708.28900	 23.00	
  3.399	-96.763	 19.37892	  9.94880	 10.21704	  8.06533	 12.28799	  0.07487	 19.40433	708.29999	 23.00	
  3.394	-69.283	 19.41392	 10.83659	  9.28343	  8.19677	 12.20147	  0.09926	 19.43259	708.28497	 23.00	
  3.400	-41.398	 19.38941	 11.58702	  8.50594	  8.69765	 11.62028	  0.11737	 19.40184	708.28601	 23.00	
  3.401	-14.021	 19.41620	 12.07888	  8.15459	  9.47301	 10.78887	  0.13159	 19.41727	708.21503	 23.00	
  3.401	 14.021	 19.41187	 12.09835	  8.13972	 10.35040	  9.89053	  0.14799	 19.41685	708.38702	 23.00	
  3.400	 41.398	 19.43059	 11.65928	  8.54280	 11.18724	  9.14227	  0.14713	 19.42194	708.28497	 23.00	
  3.394	 69.283	 19.44914	 10.90233	  9.31579	 11.75508	  8.66573	  0.13254	 19.43450	708.22101	 23.00	
  3.399	 96.763	 19.41365	 10.00539	 10.24388	 11.84999	  8.53921	  0.13229	 19.40296	708.22900	 23.00	
  3.397	124.529	 19.45152	  9.16953	 11.15926	 11.51246	  8.87700	  0.13397	 19.43773	708.31097	 23.00	
  3.388	152.325	 19.43196	  8.58510	 11.81518	 10.75692	  9.46283	  0.13932	 19.42458	708.42902	 23.00	
  5.099	161.165	 19.31610	  7.40292	 12.79007	 10.65672	  9.27481	  0.04024	 19.41512	708.31897	 23.00	
  5.109	142.013	 19.31372	  7.79943	 12.31040	 11.57086	  8.45571	  0.06500	 19.39844	708.24597	 23.00	
  5.095	123.033	 19.31418	  8.50046	 11.51736	 12.25863	  7.92399	  0.00881	 19.38660	708.34003	 23.00	
  5.105	104.191	 19.34185	  9.38113	 10.60093	 12.71005	  7.52937	 -0.01035	 19.40725	708.30499	 23.00	
  5.093	 85.207	 19.34678	 10.33483	  9.60419	 12.78371	  7.49564	  0.01835	 19.40675	708.46600	 23.00	
  5.104	 66.290	 19.34450	 11.22973	  8.67094	 12.53793	  7.70926	  0.02182	 19.41116	708.31702	 23.00	
  5.094	 47.331	 19.34964	 12.09175	  7.93301	 11.98150	  8.22855	  0.05124	 19.41776	708.42603	 23.00	
  5.089	 28.397	 19.33017	 12.71899	  7.35967	 11.14306	  8.90749	  0.05355	 19.40759	708.39600	 23.00	
  5.096	  9.576	 19.32812	 13.04319	  7.07635	 10.26032	  9.72184	  0.04818	 19.40912	708.21503	 23.00	
  5.096	 -9.576	 19.33275	 13.02765	  7.08368	  9.33471	 10.68192	  0.02223	 19.42798	708.24103	 23.00	
  5.089	-28.397	 19.30776	 12.65666	  7.37603	  8.45531	 11.59249	 -0.00662	 19.41516	708.27197	 23.00	
  5.094	-47.331	 19.27857	 11.99540	  7.88426	  7.68106	 12.40532	 -0.01935	 19.40706	708.24701	 23.00	
  5.104	-66.290	 19.28968	 11.12252	  8.63983	  7.15487	 13.00245	 -0.04679	 19.42746	708.34998	 23.00	
  5.093	-85.207	 19.26649	 10.25630	  9.54336	  6.93971	 13.23956	 -0.03396	 19.40807	708.34198	 23.00	
  5.105	-104.191	 19.26554	  9.29530	 10.56742	  6.98753	 13.16643	 -0.02395	 19.41973	708.34698	 23.00	
  5.095	-123.033	 19.25912	  8.45159	 11.50589	  7.35605	 12.73250	  0.00697	 19.40443	708.32501	 23.00	
  5.109	-142.013	 19.27777	  7.75178	 12.29388	  7.96213	 12.02527	  0.03517	 19.41945	708.31299	 23.00	
  5.099	-161.165	 19.28716	  7.34036	 12.77495	  8.79349	 11.12284	  0.05907	 19.41508	708.22998	 23.00	
  5.100	180.000	 19.29132	  7.21508	 12.94846	  9.71903	 10.16818	  0.05876	 19.40780	708.21802	 23.00	
  6.800	180.000	 19.11858	  6.08698	 13.85556	  9.50217	  9.98558	 -0.03752	 19.41270	708.18201	 23.00	
  6.796	-166.229	 19.08997	  6.13844	 13.71953	  8.58198	 10.88456	 -0.01953	 19.39796	708.41302	 23.00	
  6.808	-152.311	 19.07355	  6.40731	 13.35174	  7.68554	 11.82342	 -0.04209	 19.39470	708.12799	 23.00	
  6.795	-138.383	 19.11638	  6.88290	 12.78026	  6.90791	 12.70733	 -0.07782	 19.44567	708.25201	 23.00	
  6.792	-124.591	 19.06503	  7.55801	 11.97552	  6.27916	 13.37052	 -0.10182	 19.41304	708.26001	 23.00	
  6.787	-110.754	 19.05961	  8.39080	 11.07009	  5.88721	 13.84827	 -0.14186	 19.41132	708.28497	 23.00	
  6.800	-96.985	 19.05532	  9.29149	 10.09307	  5.74802	 14.09454	 -0.16111	 19.39601	708.37799	 23.00	
  6.800	-83.015	 19.06990	 10.24335	  9.10590	  5.77886	 14.09700	 -0.18367	 19.41177	708.50299	 23.00	
  6.787	-69.246	 19.09113	 11.12221	  8.21575	  5.98454	 13.86207	 -0.18454	 19.42290	708.32703	 23.00	
  6.792	-55.409	 19.08789	 12.02193	  7.43651	  6.37328	 13.38709	 -0.16411	 19.39629	708.27197	 23.00	
  6.795	-41.617	 19.10652	 12.81785	  6.81297	  7.01406	 12.70563	 -0.13605	 19.40661	708.21802	 23.00	
  6.808	-27.689	 19.10384	 13.42907	  6.28690	  7.80358	 11.84408	 -0.11570	 19.38889	708.31299	 23.00	
  6.796	-13.771	 19.16045	 13.83778	  6.00016	  8.70016	 10.92986	 -0.08922	 19.43430	708.35400	 22.90	
  6.800	  0.000	 19.16439	 13.97326	  5.90819	  9.58606	 10.01442	 -0.06231	 19.42409	708.37903	 22.90	
  6.796	 13.771	 19.17819	 13.88150	  5.99859	 10.46657	  9.10547	 -0.03621	 19.43527	708.26898	 22.90	
  6.808	 27.689	 19.18321	 13.53057	  6.30760	 11.42640	  8.25924	 -0.04916	 19.43102	708.35797	 22.90	
  6.795	 41.617	 19.18451	 12.93839	  6.81883	 12.26808	  7.54916	 -0.05609	 19.41825	708.17902	 23.00	
  6.792	 55.409	 19.19300	 12.17873	  7.50978	 12.95959	  6.97281	 -0.06362	 19.41613	708.32501	 22.90	
  6.787	 69.246	 19.20515	 11.28637	  8.24954	 13.44508	  6.56562	 -0.08827	 19.42770	708.39899	 22.90	
  6.800	 83.015	 19.22931	 10.40214	  9.16239	 13.71086	  6.36593	 -0.12239	 19.44131	708.25500	 22.90	
  6.800	 96.985	 19.20785	  9.43845	 10.14686	 13.69420	  6.37318	 -0.12955	 19.42161	708.62598	 22.90	
  6.787	110.754	 19.17668	  8.51053	 11.09879	 13.41721	  6.52486	 -0.13178	 19.39834	708.35400	 23.00	
  6.792	124.591	 19.19130	  7.67689	 12.01378	 12.93626	  6.93416	 -0.11725	 19.41993	708.36200	 22.90	
  6.795	138.383	 19.17399	  6.96411	 12.78179	 12.24158	  7.49472	 -0.09541	 19.41882	708.28802	 22.90	
  6.808	152.311	 19.16576	  6.45673	 13.38002	 11.39759	  8.23085	 -0.06074	 19.42141	708.27698	 22.90	
  6.796	166.229	 19.17871	  6.24162	 13.75931	 10.46348	  9.11250	 -0.05566	 19.45604	708.22998	 22.90	
  8.491	168.704	 18.89598	  5.02873	 14.59879	 10.23556	  8.83533	 -0.18513	 19.42277	708.32800	 22.90	
  8.502	157.493	 18.92186	  5.19749	 14.31129	 11.21102	  7.94242	 -0.20047	 19.42752	708.22900	 22.90	
  8.494	146.194	 18.92444	  5.60755	 13.80355	 12.13487	  7.10282	 -0.22443	 19.42194	708.30499	 22.90	
  8.495	135.039	 18.94397	  6.15618	 13.14876	 12.96449	  6.37421	 -0.27475	 19.42642	708.24902	 22.90	
  8.487	123.723	 18.96615	  6.87873	 12.32932	 13.66333	  5.79841	 -0.30615	 19.42893	708.35400	 22.90	
  8.492	112.575	 18.96329	  7.76507	 11.39905	 14.14834	  5.43331	 -0.31041	 19.41374	708.28198	 22.90	
  8.510	101.220	 18.97882	  8.71683	 10.41635	 14.47505	  5.23432	 -0.31745	 19.41824	708.41302	 22.90	
  8.500	 90.000	 18.96766	  9.67497	  9.41041	 14.56525	  5.15516	 -0.30843	 19.40998	708.27802	 22.90	
  8.510	 78.780	 18.99624	 10.64174	  8.45489	 14.48308	  5.20593	 -0.27959	 19.43515	708.26001	 22.90	
  8.492	 67.425	 18.97658	 11.58682	  7.56532	 14.16750	  5.50315	 -0.22415	 19.41944	708.31097	 22.90	
  8.487	 56.277	 18.97206	 12.48105	  6.80187	 13.67713	  5.88610	 -0.19161	 19.42372	708.25403	 22.90	
  8.495	 44.961	 18.94872	 13.29792	  6.03966	 12.98001	  6.42070	 -0.18800	 19.41730	708.23798	 22.90	
  8.494	 33.806	 18.94319	 13.95733	  5.44174	 12.16002	  7.11905	 -0.17568	 19.42094	708.24701	 22.90	
  8.502	 22.507	 18.92151	 14.43510	  4.99263	 11.22603	  7.94642	 -0.16268	 19.40841	708.30298	 22.90	
  8.491	 11.296	 18.91582	 14.71320	  4.78535	 10.26263	  8.83779	 -0.17698	 19.40935	708.35602	 22.90	
  8.500	  0.000	 18.89948	 14.80167	  4.68952	  9.30424	  9.77430	 -0.19721	 19.40509	708.16998	 22.90	
  8.491	-11.296	 18.87246	 14.65885	  4.75100	  8.37439	 10.70783	 -0.23154	 19.38488	708.21002	 22.90	
  8.502	-22.507	 18.91683	 14.38781	  4.97783	  7.50180	 11.70571	 -0.23697	 19.44758	708.36401	 22.90	
  8.494	-33.806	 18.88445	 13.84553	  5.46735	  6.63345	 12.60986	 -0.24463	 19.42355	708.25403	 22.90	
  8.495	-44.961	 18.86478	 13.16596	  6.02941	  5.86539	 13.40515	 -0.27413	 19.42650	708.23700	 22.90	
  8.487	-56.277	 18.81533	 12.30744	  6.68707	  5.32411	 14.03101	 -0.30293	 19.38368	708.29199	 22.90	
  8.492	-67.425	 18.81061	 11.40019	  7.45401	  4.93418	 14.53681	 -0.34257	 19.40248	708.35101	 22.90	
  8.510	-78.780	 18.80795	 10.47353	  8.37888	  4.66370	 14.86266	 -0.35644	 19.41402	708.31598	 22.90	
  8.500	-90.000	 18.78220	  9.49524	  9.34792	  4.56599	 14.93657	 -0.33598	 19.39100	708.22900	 22.90	
  8.510	-101.220	 18.77604	  8.53239	 10.35234	  4.62848	 14.83839	 -0.28849	 19.38990	708.14502	 22.90	
  8.492	-112.575	 18.78663	  7.60543	 11.35780	  4.80756	 14.51705	 -0.25354	 19.40342	708.20203	 22.90	
  8.487	-123.723	 18.80270	  6.75628	 12.27148	  5.18536	 14.03489	 -0.21465	 19.40866	708.06598	 22.90	
  8.495	-135.039	 18.81252	  6.06500	 13.09381	  5.71199	 13.38953	 -0.20279	 19.42150	708.08099	 22.90	
  8.494	-146.194	 18.80972	  5.52068	 13.76215	  6.44040	 12.56592	 -0.19621	 19.40768	708.29199	 22.90	
  8.502	-157.493	 18.84942	  5.18482	 14.28811	  7.35349	 11.64837	 -0.15310	 19.42512	708.19299	 22.90	
  8.491	-168.704	 18.85246	  4.96499	 14.58714	  8.29838	 10.67722	 -0.14153	 19.41765	708.16998	 22.90	
  8.500	180.000	 18.89545	  4.90998	 14.70899	  9.26203	  9.77595	 -0.16694	 19.43228	708.16699	 22.90	
 10.200	180.000	 18.52252	  3.60640	 15.46284	  8.94934	  9.48047	 -0.32479	 19.39151	708.24701	 22.90	
 10.191	-170.497	 18.50949	  3.65370	 15.38237	  7.94995	 10.39231	 -0.29431	 19.40272	708.29999	 22.90	
 10.210	-161.034	 18.50890	  3.81271	 15.13201	  6.97175	 11.37939	 -0.29882	 19.42288	708.27100	 22.90	
 10.194	-151.526	 18.49818	  4.14430	 14.68938	  6.05406	 12.34740	 -0.32590	 19.42418	708.29999	 22.90	
 10.190	-142.105	 18.46980	  4.61122	 14.09601	  5.25895	 13.21348	 -0.34668	 19.41323	708.16699	 22.90	
 10.215	-132.646	 18.46441	  5.21165	 13.37478	  4.55799	 13.99725	 -0.33816	 19.41842	708.16199	 22.90	
 10.203	-123.092	 18.43374	  5.92515	 12.50536	  4.00220	 14.63827	 -0.35004	 19.39349	708.24701	 22.90	
 10.192	-113.678	 18.43886	  6.75738	 11.57773	  3.60659	 15.15398	 -0.38894	 19.40422	708.12201	 22.90	
 10.208	-104.249	 18.43097	  7.68388	 10.59901	  3.38427	 15.50843	 -0.43942	 19.40258	708.16101	 22.90	
 10.210	-94.801	 18.46112	  8.67854	  9.60598	  3.22941	 15.70483	 -0.48382	 19.42283	708.23700	 22.90	
 10.210	-85.199	 18.47416	  9.67840	  8.57625	  3.31696	 15.72208	 -0.51943	 19.42842	708.21301	 22.90	
 10.208	-75.751	 18.47181	 10.63682	  7.60271	  3.47400	 15.54423	 -0.53350	 19.41504	708.28497	 22.90	
 10.192	-66.322	 18.49436	 11.61247	  6.69196	  3.80923	 15.20701	 -0.52045	 19.42075	708.09802	 22.90	
 10.203	-56.908	 18.53605	 12.56578	  5.87225	  4.21415	 14.72279	 -0.48142	 19.44455	708.08002	 22.90	
 10.215	-47.354	 18.52693	 13.40784	  5.16199	  4.71823	 14.05065	 -0.41849	 19.41748	708.20203	 22.90	
 10.190	-37.895	 18.51852	 14.12850	  4.56091	  5.34476	 13.25318	 -0.39481	 19.39916	708.26898	 22.90	
 10.194	-28.474	 18.55974	 14.76075	  4.09009	  6.13293	 12.39100	 -0.37860	 19.42031	708.08899	 22.90	
 10.210	-18.966	 18.54964	 15.20965	  3.75255	  7.06109	 11.41684	 -0.38691	 19.40845	708.13898	 22.90	
 10.191	 -9.503	 18.58425	 15.49642	  3.58488	  8.03847	 10.45295	 -0.37818	 19.42755	708.14301	 22.90	
 10.200	  0.000	 18.60236	 15.60609	  3.53281	  8.98947	  9.50562	 -0.35354	 19.44110	708.09100	 22.90	
 10.191	  9.503	 18.59331	 15.52680	  3.59053	  9.97971	  8.52486	 -0.32092	 19.41287	708.24701	 22.90	
 10.210	 18.966	 18.59341	 15.28605	  3.79231	 10.95977	  7.59926	 -0.32091	 19.41442	708.19202	 22.90	
 10.194	 28.474	 18.64968	 14.89749	  4.13974	 11.94864	  6.74581	 -0.32381	 19.44740	708.20697	 22.90	
 10.190	 37.895	 18.61818	 14.29455	  4.57768	 12.82594	  5.91270	 -0.31829	 19.40619	708.19800	 22.90	
 10.215	 47.354	 18.64043	 13.59519	  5.16796	 13.64072	  5.20545	 -0.31829	 19.41133	708.22400	 22.90	
 10.203	 56.908	 18.68849	 12.78122	  5.97592	 14.33304	  4.66896	 -0.33446	 19.45090	708.34399	 22.90	
 10.192	 66.322	 18.66223	 11.84313	  6.76573	 14.80295	  4.36660	 -0.36550	 19.40627	708.24701	 22.90	
 10.208	 75.751	 18.68456	 10.89429	  7.65124	 15.18624	  4.02654	 -0.43095	 19.42546	708.20697	 22.90	
 10.210	 85.199	 18.65647	  9.90555	  8.60794	 15.33537	  3.86812	 -0.48827	 19.39369	708.08801	 22.90	
 10.210	 94.801	 18.68687	  8.90527	  9.65594	 15.35847	  3.86001	 -0.52146	 19.42750	708.14203	 22.90	
 10.208	104.249	 18.66799	  7.90799	 10.65683	 15.16896	  3.99747	 -0.52268	 19.41035	708.18701	 22.80	
 10.192	113.678	 18.64664	  6.95567	 11.63216	 14.79885	  4.27286	 -0.51161	 19.39722	708.15900	 22.90	
 10.203	123.092	 18.64980	  6.11290	 12.56341	 14.29777	  4.68586	 -0.47694	 19.41250	708.10602	 22.90	
 10.215	132.646	 18.62848	  5.34507	 13.40749	 13.63932	  5.21771	 -0.44391	 19.41586	708.10797	 22.90	
 10.190	142.105	 18.60579	  4.72247	 14.13072	 12.82998	  5.90142	 -0.39625	 19.40803	708.20099	 22.90	
 10.194	151.526	 18.61951	  4.26616	 14.72614	 11.93824	  6.73904	 -0.33961	 19.43101	708.04999	 22.90	
 10.210	161.034	 18.58814	  3.90645	 15.14748	 10.95111	  7.61596	 -0.33434	 19.41887	708.09998	 22.90	
 10.191	170.497	 18.57456	  3.70770	 15.39423	  9.98524	  8.53655	 -0.32620	 19.42238	708.16998	 22.90	
 11.899	171.783	 18.15086	  2.51888	 16.11097	  9.64645	  8.18182	 -0.47902	 19.40298	708.20099	 22.90	
 11.890	163.610	 18.18683	  2.68785	 15.90498	 10.63700	  7.28262	 -0.47966	 19.41317	708.18500	 22.80	
 11.889	155.445	 18.21626	  2.98454	 15.54968	 11.63202	  6.38310	 -0.48630	 19.43504	708.20898	 22.80	
 11.909	147.299	 18.22175	  3.38270	 15.04138	 12.59184	  5.42765	 -0.52156	 19.42694	708.16998	 22.80	
 11.902	139.148	 18.22422	  3.92670	 14.37557	 13.44210	  4.66896	 -0.58583	 19.40697	708.09497	 22.90	
 11.894	130.867	 18.27521	  4.60317	 13.62812	 14.22906	  4.06842	 -0.62404	 19.43061	708.13599	 22.80	
 11.897	122.732	 18.28923	  5.33502	 12.78012	 14.88526	  3.55923	 -0.67323	 19.42771	708.14203	 22.80	
 11.903	114.597	 18.29092	  6.13546	 11.84883	 15.40759	  3.12975	 -0.70383	 19.41727	708.15002	 22.90	
 11.893	106.346	 18.29287	  7.05765	 10.84837	 15.79756	  2.81563	 -0.73791	 19.40998	708.12598	 22.80	
 11.892	 98.155	 18.30428	  8.05933	  9.83649	 16.03376	  2.64152	 -0.73425	 19.41289	708.07202	 22.80	
 11.900	 90.000	 18.30255	  9.06648	  8.81868	 16.11947	  2.59295	 -0.71714	 19.41620	708.16101	 22.80	
 11.892	 81.845	 18.31371	 10.08603	  7.82545	 16.03681	  2.67739	 -0.68170	 19.42568	708.00403	 22.80	
 11.893	 73.654	 18.28768	 11.06484	  6.84230	 15.76677	  2.86150	 -0.59204	 19.40047	708.08801	 22.80	
 11.903	 65.403	 18.28096	 12.04085	  5.91533	 15.38628	  3.16008	 -0.52367	 19.39553	708.17102	 22.80	
 11.897	 57.268	 18.30245	 12.98426	  5.15283	 14.87076	  3.62363	 -0.46474	 19.42877	708.09100	 22.80	
 11.894	 49.133	 18.26705	 13.80683	  4.40630	 14.20797	  4.09932	 -0.45640	 19.40987	708.05200	 22.80	
 11.902	 40.852	 18.26623	 14.57873	  3.76321	 13.45633	  4.70091	 -0.46173	 19.43412	708.08801	 22.80	
 11.909	 32.701	 18.22066	 15.18557	  3.23950	 12.56271	  5.43244	 -0.45687	 19.40085	708.10602	 22.80	
 11.889	 24.555	 18.22547	 15.68771	  2.85643	 11.62294	  6.29053	 -0.46120	 19.41546	708.16101	 22.80	
 11.890	 16.390	 18.20478	 16.03703	  2.55496	 10.63479	  7.21280	 -0.46312	 19.40604	708.22998	 22.80	
 11.899	  8.217	 18.17916	 16.26074	  2.37088	  9.65981	  8.14970	 -0.48203	 19.39746	708.09100	 22.80	
 11.900	  0.000	 18.18460	 16.32185	  2.31346	  8.64810	  9.14509	 -0.51431	 19.40732	708.18201	 22.80	
 11.899	 -8.217	 18.19804	 16.26025	  2.35613	  7.63781	 10.14280	 -0.52804	 19.43771	708.09698	 22.80	
 11.890	-16.390	 18.15258	 15.95819	  2.52224	  6.64700	 11.08374	 -0.53656	 19.39483	708.16803	 22.80	
 11.889	-24.555	 18.16545	 15.57816	  2.79695	  5.70570	 12.08744	 -0.51387	 19.42559	708.10602	 22.80	
 11.909	-32.701	 18.12774	 15.03575	  3.18214	  4.86592	 12.98972	 -0.50761	 19.40342	708.20099	 22.80	
 11.902	-40.852	 18.13480	 14.38453	  3.72690	  4.12674	 13.83996	 -0.52268	 19.41819	708.17603	 22.80	
 11.894	-49.133	 18.12851	 13.59797	  4.37977	  3.50673	 14.60894	 -0.56678	 19.42189	708.11200	 22.80	
 11.897	-57.268	 18.09999	 12.71589	  5.10729	  3.02071	 15.23359	 -0.61745	 19.40671	708.17798	 22.80	
 11.903	-65.403	 18.09271	 11.79150	  5.87829	  2.60490	 15.76016	 -0.65618	 19.41908	708.04602	 22.80	
 11.893	-73.654	 18.06253	 10.78988	  6.78282	  2.30612	 16.11264	 -0.68867	 19.40685	708.03003	 22.80	
 11.892	-81.845	 18.06084	  9.80454	  7.75336	  2.11871	 16.33330	 -0.68572	 19.41304	708.17902	 22.80	
 11.900	-90.000	 18.06151	  8.79373	  8.75870	  2.04738	 16.42083	 -0.64188	 19.42679	708.15399	 22.80	
 11.892	-98.155	 18.05664	  7.78136	  9.77649	  2.06865	 16.34261	 -0.61739	 19.42718	708.06598	 22.80	
 11.893	-106.346	 18.05475	  6.80751	 10.78380	  2.23827	 16.12281	 -0.56815	 19.43640	708.12299	 22.80	
 11.903	-114.597	 18.02385	  5.88558	 11.76471	  2.52064	 15.72231	 -0.51932	 19.40966	708.17902	 22.80	
 11.897	-122.732	 18.03730	  5.07842	 12.69289	  2.94687	 15.21168	 -0.48148	 19.41379	708.04602	 22.80	
 11.894	-130.867	 18.04515	  4.40854	 13.54474	  3.49550	 14.55341	 -0.47485	 19.40270	708.04901	 22.80	
 11.902	-139.148	 18.07946	  3.79946	 14.33343	  4.13307	 13.80499	 -0.48311	 19.42485	708.10303	 22.80	
 11.909	-147.299	 18.10448	  3.31241	 15.00276	  4.85444	 12.97502	 -0.48236	 19.44871	708.10498	 22.80	
 11.889	-155.445	 18.08078	  2.90692	 15.48214	  5.66744	 12.02420	 -0.46064	 19.40194	708.19501	 22.80	
 11.890	-163.610	 18.12550	  2.63549	 15.89252	  6.60653	 11.06879	 -0.45137	 19.42942	708.16803	 22.80	
 11.899	-171.783	 18.12043	  2.48348	 16.11297	  7.58103	 10.08691	 -0.46423	 19.40792	707.99500	 22.80	
 11.900	180.000	 18.17434	  2.44505	 16.22075	  8.62625	  9.15915	 -0.47650	 19.44120	707.93597	 22.80	
 13.600	180.000	 17.67085	  1.23666	 16.84574	  8.21137	  8.70902	 -0.62790	 19.41212	708.05298	 22.80	
 13.608	-172.853	 17.65201	  1.26759	 16.78945	  7.19789	  9.68284	 -0.62747	 19.42597	708.21301	 22.80	
 13.611	-165.583	 17.63803	  1.42012	 16.58017	  6.20747	 10.66422	 -0.60833	 19.42027	708.02399	 22.80	
 13.601	-158.353	 17.61584	  1.68799	 16.22590	  5.29067	 11.65957	 -0.62689	 19.40947	708.13098	 22.80	
 13.609	-151.210	 17.58428	  2.00575	 15.75928	  4.44130	 12.58982	 -0.64319	 19.40507	707.98999	 22.80	
 13.611	-143.999	 17.58009	  2.44611	 15.17366	  3.67570	 13.49286	 -0.62048	 19.41235	708.16199	 22.80	
 13.601	-136.825	 17.58192	  2.96699	 14.48908	  3.00129	 14.32139	 -0.59889	 19.42398	708.15601	 22.80	
 13.596	-129.640	 17.56501	  3.57957	 13.68781	  2.39177	 15.06031	 -0.59445	 19.41059	708.23297	 22.80	
