FileType=PCF
NHL=14
Date=08/25/17	15:13:44
Facility=APL
Serial=16328-6
Customer=NASA
NP=6
Mach=0.100000
Calibration=1:1
CalPts=490
TstPts=95
PortNumbering=AP Standard
Units=Torr C m/s kg/m^3 deg mm 
Theta[deg]	Phi[deg]	P1[Torr]	P2[Torr]	P3[Torr]	P4[Torr]	P5[Torr]	P6[Torr]	Pt[Torr]	Ps[Abs,Torr]	Ts[C]	
  0.000	  0.000	  4.91158	  2.62061	  2.60128	  2.55407	  2.68495	  0.03708	  4.90991	706.70697	 23.10	
  1.691	128.401	  4.91759	  2.48039	  2.73857	  2.73180	  2.50358	  0.03750	  4.91649	706.48798	 23.10	
  1.692	 77.194	  4.92043	  2.67859	  2.54859	  2.78309	  2.46178	  0.03613	  4.91916	706.59198	 23.10	
  1.699	 26.182	  4.90799	  2.82300	  2.38610	  2.65201	  2.57623	  0.03566	  4.90761	708.07202	 23.10	
  1.699	-26.182	  4.90628	  2.80163	  2.38638	  2.44235	  2.76481	  0.02780	  4.90655	706.62903	 23.10	
  1.692	-77.194	  4.92240	  2.64700	  2.55077	  2.33014	  2.89552	  0.02707	  4.92071	706.50800	 23.10	
  1.691	-128.401	  4.91411	  2.46067	  2.73624	  2.37340	  2.83901	  0.02968	  4.91181	706.56897	 23.10	
  1.700	180.000	  4.90829	  2.38636	  2.80798	  2.54011	  2.67308	  0.02996	  4.90892	706.44800	 23.10	
  3.400	180.000	  4.90619	  2.12579	  3.05447	  2.50973	  2.64382	  0.01810	  4.91475	706.66199	 23.10	
  3.388	-152.325	  4.90565	  2.16582	  2.99609	  2.29488	  2.86305	  0.01515	  4.91350	706.52100	 23.10	
  3.397	-124.529	  4.90014	  2.29949	  2.83121	  2.12642	  3.03801	  0.01417	  4.91164	707.17401	 23.10	
  3.399	-96.763	  4.89560	  2.50554	  2.60540	  2.04717	  3.12499	  0.01177	  4.90638	706.54999	 23.10	
  3.394	-69.283	  4.89337	  2.73315	  2.37932	  2.07194	  3.09702	  0.00694	  4.90270	706.50403	 23.10	
  3.400	-41.398	  4.91083	  2.94401	  2.20441	  2.20624	  2.96856	  0.01044	  4.91824	708.09198	 23.10	
  3.401	-14.021	  4.90087	  3.05065	  2.11014	  2.39358	  2.75731	  0.01322	  4.90406	706.49597	 23.10	
  3.401	 14.021	  4.90764	  3.06405	  2.11729	  2.62864	  2.53235	  0.02117	  4.91041	708.10797	 23.10	
  3.400	 41.398	  4.91767	  2.95619	  2.22217	  2.84200	  2.34571	  0.02046	  4.91924	706.53302	 23.10	
  3.394	 69.283	  4.91986	  2.76435	  2.39936	  2.97496	  2.23296	  0.01888	  4.91954	707.14001	 23.10	
  3.399	 96.763	  4.90140	  2.52894	  2.61534	  2.99889	  2.19857	  0.02329	  4.90341	706.59198	 23.10	
  3.397	124.529	  4.91492	  2.33235	  2.83654	  2.92043	  2.26872	  0.01962	  4.92031	708.27502	 23.10	
  3.388	152.325	  4.91970	  2.18823	  2.99906	  2.74456	  2.43196	  0.01978	  4.92256	707.68903	 23.10	
  5.099	161.165	  4.88354	  1.88054	  3.24782	  2.71603	  2.36586	 -0.00139	  4.91216	708.32001	 23.10	
  5.109	142.013	  4.88749	  1.99366	  3.12470	  2.94331	  2.16389	 -0.00074	  4.91534	706.58099	 23.10	
  5.095	123.033	  4.88906	  2.16531	  2.93390	  3.11199	  2.02166	  0.00027	  4.91079	707.33698	 23.10	
  5.105	104.191	  4.89771	  2.38103	  2.71202	  3.22342	  1.94165	 -0.00040	  4.91861	708.09198	 23.20	
  5.093	 85.207	  4.89026	  2.61542	  2.46416	  3.23854	  1.92178	  0.00047	  4.90837	708.21503	 23.10	
  5.104	 66.290	  4.90154	  2.86233	  2.23918	  3.18313	  1.97919	  0.00319	  4.92247	708.13000	 23.10	
  5.094	 47.331	  4.88643	  3.06344	  2.04057	  3.03081	  2.09458	  0.00450	  4.90701	708.19299	 23.20	
  5.089	 28.397	  4.89670	  3.22386	  1.90844	  2.83871	  2.27260	 -0.00111	  4.92040	708.16998	 23.10	
  5.096	  9.576	  4.89593	  3.30850	  1.83448	  2.60351	  2.49409	 -0.00044	  4.92332	708.00500	 23.10	
  5.096	 -9.576	  4.89956	  3.30679	  1.83344	  2.35566	  2.74677	 -0.00348	  4.92731	708.04303	 23.20	
  5.089	-28.397	  4.88221	  3.20473	  1.90168	  2.13070	  2.96628	 -0.00613	  4.91134	706.38599	 23.10	
  5.094	-47.331	  4.89663	  3.05619	  2.04182	  1.95427	  3.17859	 -0.01143	  4.93194	706.38702	 23.10	
  5.104	-66.290	  4.87765	  2.83351	  2.22564	  1.82135	  3.31204	 -0.01359	  4.91698	706.37799	 23.10	
  5.093	-85.207	  4.87396	  2.59079	  2.45460	  1.76512	  3.37107	 -0.01159	  4.91548	706.41901	 23.20	
  5.105	-104.191	  4.87346	  2.34865	  2.70224	  1.78001	  3.35037	 -0.00713	  4.91692	708.04102	 23.10	
  5.095	-123.033	  4.88071	  2.14024	  2.93595	  1.87390	  3.24623	 -0.00164	  4.92319	706.80902	 23.10	
  5.109	-142.013	  4.88981	  1.97390	  3.13382	  2.03434	  3.07445	  0.00041	  4.92839	706.45697	 23.10	
  5.099	-161.165	  4.87777	  1.86769	  3.24989	  2.23641	  2.84242	  0.00398	  4.91553	706.49500	 23.10	
  5.100	180.000	  4.88784	  1.84097	  3.29707	  2.47499	  2.60476	  0.00313	  4.91908	708.12299	 23.10	
  6.800	180.000	  4.84866	  1.54952	  3.52787	  2.42902	  2.55901	 -0.02226	  4.92661	708.03003	 23.10	
  6.796	-166.229	  4.83354	  1.56660	  3.48755	  2.18678	  2.78960	 -0.02011	  4.91299	708.11603	 23.10	
  6.808	-152.311	  4.82640	  1.63463	  3.39463	  1.96477	  3.02093	 -0.02492	  4.91178	706.61902	 23.10	
  6.795	-138.383	  4.82953	  1.75926	  3.24756	  1.77446	  3.23650	 -0.02713	  4.91810	707.87500	 23.20	
  6.792	-124.591	  4.83385	  1.92610	  3.05869	  1.62523	  3.41029	 -0.02805	  4.92209	706.39801	 23.20	
  6.787	-110.754	  4.82883	  2.12940	  2.83211	  1.52503	  3.52738	 -0.03517	  4.91954	706.40601	 23.10	
  6.800	-96.985	  4.83160	  2.35671	  2.59582	  1.47424	  3.59412	 -0.04385	  4.92385	706.40900	 23.10	
  6.800	-83.015	  4.82267	  2.59628	  2.34367	  1.47220	  3.58736	 -0.04541	  4.90895	706.83899	 23.10	
  6.787	-69.246	  4.84209	  2.84414	  2.12642	  1.53319	  3.54059	 -0.04636	  4.93178	706.36298	 23.10	
  6.792	-55.409	  4.83824	  3.06386	  1.92002	  1.63133	  3.41753	 -0.04575	  4.92007	706.38599	 23.20	
  6.795	-41.617	  4.84094	  3.25864	  1.75395	  1.78220	  3.24903	 -0.04149	  4.91863	707.84698	 23.10	
  6.808	-27.689	  4.84606	  3.41338	  1.62898	  1.97323	  3.04106	 -0.03602	  4.92128	708.14301	 23.20	
  6.796	-13.771	  4.84342	  3.50482	  1.55274	  2.19046	  2.80662	 -0.03325	  4.91644	706.45398	 23.10	
  6.800	  0.000	  4.86137	  3.55152	  1.53318	  2.43349	  2.57705	 -0.03124	  4.93051	708.05701	 23.10	
  6.796	 13.771	  4.86542	  3.52720	  1.56000	  2.68052	  2.34069	 -0.02740	  4.93295	707.09302	 23.10	
  6.808	 27.689	  4.85305	  3.43022	  1.63161	  2.90644	  2.11749	 -0.02263	  4.91667	707.61603	 23.10	
  6.795	 41.617	  4.86340	  3.28805	  1.76461	  3.11920	  1.93974	 -0.02252	  4.92639	706.62201	 23.20	
  6.792	 55.409	  4.86946	  3.10243	  1.93493	  3.29433	  1.79539	 -0.01836	  4.92803	708.15601	 23.10	
  6.787	 69.246	  4.86195	  2.87786	  2.13468	  3.40993	  1.69114	 -0.02019	  4.92121	708.23999	 23.10	
  6.800	 83.015	  4.86491	  2.64312	  2.36126	  3.47639	  1.63775	 -0.02549	  4.91996	708.12201	 23.10	
  6.800	 96.985	  4.86815	  2.40147	  2.60813	  3.47904	  1.63697	 -0.02587	  4.92599	708.09497	 23.10	
  6.787	110.754	  4.85923	  2.17112	  2.84098	  3.40909	  1.68704	 -0.02635	  4.91603	708.10498	 23.10	
  6.792	124.591	  4.85525	  1.96752	  3.06104	  3.28582	  1.78377	 -0.02728	  4.91544	708.20898	 23.10	
  6.795	138.383	  4.86086	  1.79905	  3.25816	  3.11983	  1.92907	 -0.02360	  4.92672	708.04901	 23.10	
  6.808	152.311	  4.85651	  1.66704	  3.40625	  2.91180	  2.10869	 -0.02106	  4.92642	708.18402	 23.10	
  6.796	166.229	  4.84922	  1.58240	  3.49451	  2.67310	  2.32094	 -0.02393	  4.92111	708.12299	 23.10	
  8.491	168.704	  4.79503	  1.28399	  3.71821	  2.62474	  2.25531	 -0.06002	  4.93028	706.49298	 23.10	
  8.502	157.493	  4.78882	  1.34804	  3.63527	  2.86374	  2.02607	 -0.05682	  4.91881	706.44000	 23.10	
  8.494	146.194	  4.79643	  1.45845	  3.51218	  3.09514	  1.82791	 -0.05598	  4.92456	706.51801	 23.10	
  8.495	135.039	  4.79208	  1.60069	  3.34176	  3.29384	  1.65076	 -0.06220	  4.91433	706.67798	 23.10	
  8.487	123.723	  4.80732	  1.78603	  3.14392	  3.47371	  1.51491	 -0.06673	  4.92708	706.38702	 23.10	
  8.492	112.575	  4.80667	  1.98972	  2.91749	  3.59596	  1.41432	 -0.06608	  4.92228	706.33197	 23.10	
  8.510	101.220	  4.80733	  2.21868	  2.67248	  3.67759	  1.35147	 -0.06538	  4.92335	706.45599	 23.10	
  8.500	 90.000	  4.81221	  2.46614	  2.42613	  3.70478	  1.33590	 -0.06587	  4.92857	706.34900	 23.10	
  8.510	 78.780	  4.81557	  2.71498	  2.18186	  3.68259	  1.35566	 -0.06255	  4.92968	707.91699	 23.10	
  8.492	 67.425	  4.80610	  2.95498	  1.94742	  3.59470	  1.42013	 -0.05431	  4.92016	708.05701	 23.10	
  8.487	 56.277	  4.80167	  3.17512	  1.74265	  3.46807	  1.52100	 -0.04951	  4.91910	708.06403	 23.10	
  8.495	 44.961	  4.80089	  3.37868	  1.56395	  3.29874	  1.66303	 -0.05697	  4.92064	708.06702	 23.10	
  8.494	 33.806	  4.79053	  3.53500	  1.42165	  3.09018	  1.83483	 -0.05944	  4.91269	708.13898	 23.10	
  8.502	 22.507	  4.80559	  3.67147	  1.31871	  2.87060	  2.04574	 -0.06023	  4.93265	708.06897	 23.10	
  8.491	 11.296	  4.79343	  3.73423	  1.25582	  2.62288	  2.26699	 -0.06339	  4.92126	708.09497	 23.10	
  8.500	  0.000	  4.79071	  3.75716	  1.23262	  2.36867	  2.51226	 -0.07120	  4.92198	707.57300	 23.10	
  8.491	-11.296	  4.78787	  3.72527	  1.25359	  2.12406	  2.75718	 -0.07005	  4.92150	706.36102	 23.10	
  8.502	-22.507	  4.78212	  3.64398	  1.31217	  1.89385	  2.99580	 -0.06961	  4.91893	706.48999	 23.10	
  8.494	-33.806	  4.79880	  3.52530	  1.42182	  1.68977	  3.23856	 -0.07457	  4.93993	706.51300	 23.10	
  8.495	-44.961	  4.77975	  3.34322	  1.55738	  1.50598	  3.42773	 -0.08104	  4.92481	706.23700	 23.10	
  8.487	-56.277	  4.77119	  3.13457	  1.73365	  1.36414	  3.58559	 -0.08484	  4.91621	706.92700	 23.10	
  8.492	-67.425	  4.77848	  2.91316	  1.93944	  1.26235	  3.71570	 -0.08717	  4.92831	707.09003	 23.10	
  8.510	-78.780	  4.77835	  2.66782	  2.17163	  1.19329	  3.79694	 -0.08770	  4.93212	706.27698	 23.10	
  8.500	-90.000	  4.76950	  2.41474	  2.41319	  1.17125	  3.81477	 -0.08818	  4.92692	706.41101	 23.10	
  8.510	-101.220	  4.76002	  2.16735	  2.65718	  1.18637	  3.78022	 -0.08332	  4.91965	706.45599	 23.10	
  8.492	-112.575	  4.76419	  1.93892	  2.90722	  1.25457	  3.70225	 -0.07301	  4.92400	706.45398	 23.10	
  8.487	-123.723	  4.76385	  1.73579	  3.13246	  1.35751	  3.57641	 -0.06256	  4.91969	706.45599	 23.10	
  8.495	-135.039	  4.76868	  1.56018	  3.33941	  1.49881	  3.41448	 -0.06355	  4.92535	707.12299	 23.10	
  8.494	-146.194	  4.75699	  1.42048	  3.49590	  1.67385	  3.20307	 -0.06357	  4.90776	706.43201	 23.10	
  8.502	-157.493	  4.77418	  1.32398	  3.63412	  1.89070	  2.98068	 -0.06021	  4.92341	708.03302	 23.10	
  8.491	-168.704	  4.77657	  1.26668	  3.70959	  2.11954	  2.74045	 -0.05584	  4.92494	708.09698	 23.10	
  8.500	180.000	  4.77598	  1.24896	  3.73352	  2.36179	  2.49182	 -0.05898	  4.91701	708.08801	 23.20	
 10.200	180.000	  4.69854	  0.95119	  3.93528	  2.29183	  2.42031	 -0.09663	  4.92196	707.96503	 23.10	
 10.191	-170.497	  4.69461	  0.96367	  3.91279	  2.04450	  2.66926	 -0.09341	  4.92294	707.98499	 23.20	
 10.210	-161.034	  4.69069	  1.01043	  3.84723	  1.80769	  2.91492	 -0.09628	  4.92416	708.06000	 23.10	
 10.194	-151.526	  4.68469	  1.09481	  3.73246	  1.58544	  3.15412	 -0.10027	  4.91928	706.66699	 23.10	
 10.190	-142.105	  4.68685	  1.21236	  3.58981	  1.39087	  3.37684	 -0.10122	  4.92806	708.06097	 23.10	
 10.215	-132.646	  4.69256	  1.36158	  3.41483	  1.22445	  3.57593	 -0.09844	  4.93516	706.36700	 23.20	
 10.203	-123.092	  4.69481	  1.54420	  3.20467	  1.08497	  3.74828	 -0.09747	  4.94130	706.32898	 23.20	
 10.192	-113.678	  4.66686	  1.74026	  2.95505	  0.97627	  3.85305	 -0.10893	  4.91219	708.10797	 23.20	
 10.208	-104.249	  4.68620	  1.97189	  2.72241	  0.90645	  3.96091	 -0.12175	  4.93405	706.48499	 23.20	
 10.210	-94.801	  4.67377	  2.20522	  2.46356	  0.86827	  3.99738	 -0.13115	  4.91881	707.93597	 23.20	
 10.210	-85.199	  4.68139	  2.46314	  2.21077	  0.86920	  4.00450	 -0.13284	  4.92741	706.45398	 23.20	
 10.208	-75.751	  4.67684	  2.71156	  1.96725	  0.90665	  3.95519	 -0.13053	  4.91738	708.04999	 23.20	
 10.192	-66.322	  4.67776	  2.95317	  1.74300	  0.98097	  3.86647	 -0.12794	  4.91348	706.44800	 23.20	
 10.203	-56.908	  4.69652	  3.19620	  1.54336	  1.09059	  3.75306	 -0.12569	  4.93096	707.98798	 23.20	
 10.215	-47.354	  4.69916	  3.41156	  1.35820	  1.23021	  3.58696	 -0.11967	  4.92625	707.70599	 23.20	
 10.190	-37.895	  4.68608	  3.58055	  1.20599	  1.39291	  3.38279	 -0.11205	  4.90881	707.95398	 23.20	
 10.194	-28.474	  4.70926	  3.74715	  1.09206	  1.59387	  3.17798	 -0.10591	  4.93027	707.90100	 23.20	
 10.210	-18.966	  4.70877	  3.85943	  1.00220	  1.81393	  2.93562	 -0.10784	  4.92426	706.40900	 23.20	
 10.191	 -9.503	  4.71149	  3.92543	  0.95227	  2.04976	  2.68937	 -0.10788	  4.92526	706.64502	 23.20	
 10.200	  0.000	  4.70515	  3.94966	  0.93169	  2.29201	  2.43758	 -0.10771	  4.91679	706.35999	 23.20	
 10.191	  9.503	  4.71774	  3.93869	  0.95183	  2.55453	  2.19182	 -0.10494	  4.92848	708.10602	 23.20	
 10.210	 18.966	  4.72605	  3.88530	  1.00524	  2.80803	  1.96272	 -0.10107	  4.93213	708.12799	 23.20	
 10.194	 28.474	  4.72142	  3.77131	  1.09594	  3.04373	  1.74652	 -0.09957	  4.92177	707.24701	 23.20	
 10.190	 37.895	  4.72579	  3.63037	  1.21704	  3.27060	  1.55349	 -0.09661	  4.92584	706.84198	 23.20	
 10.215	 47.354	  4.72906	  3.45412	  1.36552	  3.47027	  1.38409	 -0.09163	  4.92349	706.80902	 23.20	
 10.203	 56.908	  4.74305	  3.25433	  1.55375	  3.64533	  1.25467	 -0.08509	  4.93733	707.95398	 23.20	
 10.192	 66.322	  4.72637	  3.01227	  1.75604	  3.75516	  1.15129	 -0.08861	  4.91368	706.35602	 23.20	
 10.208	 75.751	  4.73398	  2.77521	  1.98378	  3.85230	  1.07781	 -0.09996	  4.92489	706.30499	 23.20	
 10.210	 85.199	  4.73351	  2.52515	  2.22517	  3.89666	  1.04159	 -0.10645	  4.92196	706.36401	 23.20	
 10.210	 94.801	  4.73397	  2.27015	  2.48124	  3.89921	  1.03976	 -0.10706	  4.92189	706.27600	 23.20	
 10.208	104.249	  4.73558	  2.02880	  2.73389	  3.85529	  1.07281	 -0.10781	  4.92580	706.35199	 23.20	
 10.192	113.678	  4.73654	  1.80677	  2.97938	  3.76725	  1.14519	 -0.10919	  4.93074	706.20398	 23.20	
 10.203	123.092	  4.73583	  1.59537	  3.21352	  3.64253	  1.24360	 -0.11114	  4.93437	706.33197	 23.20	
 10.215	132.646	  4.73198	  1.40835	  3.42418	  3.47664	  1.37233	 -0.10540	  4.93392	706.28198	 23.20	
 10.190	142.105	  4.71476	  1.25420	  3.59163	  3.26508	  1.53840	 -0.09426	  4.91742	706.26001	 23.20	
 10.194	151.526	  4.70869	  1.12879	  3.73745	  3.04037	  1.72964	 -0.08942	  4.91677	706.28198	 23.20	
 10.210	161.034	  4.71931	  1.03631	  3.85963	  2.80818	  1.94765	 -0.09499	  4.93290	706.21503	 23.20	
 10.191	170.497	  4.70966	  0.97739	  3.91986	  2.55458	  2.17493	 -0.09864	  4.92652	706.39398	 23.20	
 11.899	171.783	  4.62296	  0.67772	  4.11528	  2.47851	  2.09377	 -0.13707	  4.94262	706.19702	 23.20	
 11.890	163.610	  4.61607	  0.72837	  4.04745	  2.72522	  1.85715	 -0.13389	  4.93134	706.24597	 23.20	
 11.889	155.445	  4.61190	  0.80720	  3.94607	  2.96748	  1.63439	 -0.13164	  4.91846	706.15198	 23.20	
 11.909	147.299	  4.61360	  0.91170	  3.81826	  3.20320	  1.42775	 -0.13237	  4.91704	706.35602	 23.20	
 11.902	139.148	  4.62692	  1.04931	  3.66262	  3.42728	  1.25235	 -0.13828	  4.92733	706.17999	 23.20	
 11.894	130.867	  4.62708	  1.21303	  3.46754	  3.61648	  1.09885	 -0.14456	  4.91898	706.28802	 23.20	
 11.897	122.732	  4.64073	  1.39869	  3.26125	  3.78961	  0.97006	 -0.15114	  4.93242	706.23102	 23.20	
 11.903	114.597	  4.64241	  1.60276	  3.03033	  3.92326	  0.86564	 -0.15668	  4.93342	706.20300	 23.20	
 11.893	106.346	  4.63443	  1.82874	  2.77420	  4.00960	  0.79375	 -0.15435	  4.92039	706.18701	 23.20	
 11.892	 98.155	  4.63690	  2.06797	  2.52159	  4.06801	  0.74934	 -0.15338	  4.92211	706.22302	 23.20	
 11.900	 90.000	  4.63959	  2.31752	  2.26978	  4.09043	  0.73683	 -0.15114	  4.92496	706.26599	 23.20	
 11.892	 81.845	  4.64444	  2.57200	  2.02261	  4.07246	  0.75434	 -0.14639	  4.92564	706.25299	 23.20	
 11.893	 73.654	  4.64776	  2.82483	  1.78579	  4.01784	  0.80229	 -0.13806	  4.93102	706.17297	 23.20	
 11.903	 65.403	  4.63593	  3.06472	  1.55564	  3.91350	  0.87635	 -0.12533	  4.92437	707.80701	 23.20	
 11.897	 57.268	  4.64200	  3.30074	  1.35238	  3.78466	  0.98167	 -0.12276	  4.92827	707.90100	 23.20	
 11.894	 49.133	  4.63430	  3.50809	  1.16960	  3.61617	  1.11273	 -0.12372	  4.92414	707.77002	 23.20	
 11.902	 40.852	  4.62668	  3.69476	  1.00638	  3.42128	  1.26544	 -0.12968	  4.92279	706.28497	 23.20	
 11.909	 32.701	  4.61386	  3.84450	  0.87302	  3.19962	  1.44263	 -0.13481	  4.91106	708.01898	 23.20	
 11.889	 24.555	  4.62250	  3.97768	  0.77364	  2.96851	  1.65230	 -0.13645	  4.92313	707.19702	 23.20	
 11.890	 16.390	  4.61120	  4.06038	  0.69624	  2.71744	  1.86914	 -0.13990	  4.91487	706.39203	 23.20	
 11.899	  8.217	  4.63259	  4.13380	  0.65482	  2.47824	  2.11394	 -0.14490	  4.93939	707.93597	 23.30	
 11.900	  0.000	  4.61698	  4.13707	  0.63727	  2.21363	  2.35742	 -0.14418	  4.92631	707.75403	 23.30	
 11.899	 -8.217	  4.60187	  4.10177	  0.65128	  1.95840	  2.60113	 -0.14236	  4.91129	706.29602	 23.30	
 11.890	-16.390	  4.60040	  4.03872	  0.69495	  1.72231	  2.84855	 -0.14368	  4.91184	706.37500	 23.30	
 11.889	-24.555	  4.60151	  3.94521	  0.76800	  1.49770	  3.09591	 -0.14182	  4.91878	706.40802	 23.30	
 11.909	-32.701	  4.60634	  3.81971	  0.87008	  1.29409	  3.33139	 -0.14489	  4.92892	707.20203	 23.30	
 11.902	-40.852	  4.60661	  3.65512	  1.00105	  1.11362	  3.54152	 -0.15127	  4.93001	707.47498	 23.30	
 11.894	-49.133	  4.60533	  3.45977	  1.16228	  0.95079	  3.73657	 -0.15875	  4.93325	707.84698	 23.30	
 11.897	-57.268	  4.59528	  3.23958	  1.34219	  0.81589	  3.89193	 -0.16456	  4.92792	707.18903	 23.40	
 11.903	-65.403	  4.58323	  2.99785	  1.54139	  0.70371	  4.01852	 -0.16701	  4.92306	707.70398	 23.40	
 11.893	-73.654	  4.58690	  2.75403	  1.76945	  0.63188	  4.11394	 -0.16719	  4.92924	707.09497	 23.40	
 11.892	-81.845	  4.55789	  2.48782	  1.99707	  0.58536	  4.14346	 -0.17026	  4.90304	706.42200	 23.40	
 11.900	-90.000	  4.57021	  2.24238	  2.25022	  0.57061	  4.17329	 -0.17444	  4.91738	706.29303	 23.40	
 11.892	-98.155	  4.57177	  1.99657	  2.50487	  0.58480	  4.15494	 -0.16735	  4.92014	706.32397	 23.40	
 11.893	-106.346	  4.56956	  1.75642	  2.75592	  0.62532	  4.09569	 -0.16322	  4.91911	706.11902	 23.40	
 11.903	-114.597	  4.56851	  1.53286	  3.00444	  0.69894	  4.00315	 -0.14504	  4.92247	706.25098	 23.40	
 11.897	-122.732	  4.57459	  1.33455	  3.23912	  0.80623	  3.87590	 -0.13505	  4.92520	706.27698	 23.40	
 11.894	-130.867	  4.57233	  1.15177	  3.45157	  0.93769	  3.70778	 -0.14107	  4.91856	706.27301	 23.40	
 11.902	-139.148	  4.57955	  0.99931	  3.64958	  1.10441	  3.51928	 -0.13601	  4.92315	707.90802	 23.40	
 11.909	-147.299	  4.58382	  0.87259	  3.81410	  1.28608	  3.31065	 -0.13892	  4.92831	707.27899	 23.40	
 11.889	-155.445	  4.58885	  0.77663	  3.94256	  1.49562	  3.07879	 -0.13816	  4.92549	707.47803	 23.40	
 11.890	-163.610	  4.59850	  0.70767	  4.04297	  1.72334	  2.83720	 -0.13467	  4.93217	706.23700	 23.40	
 11.899	-171.783	  4.59871	  0.66655	  4.09937	  1.96166	  2.58744	 -0.13543	  4.92748	706.23499	 23.40	
 11.900	180.000	  4.61448	  0.65873	  4.12925	  2.21603	  2.34334	 -0.13966	  4.93946	707.84698	 23.40	
 13.600	180.000	  4.49149	  0.36255	  4.28969	  2.11895	  2.24228	 -0.18181	  4.93444	706.25403	 23.50	
 13.608	-172.853	  4.47860	  0.36451	  4.26778	  1.86719	  2.48318	 -0.18014	  4.92665	706.42902	 23.50	
 13.611	-165.583	  4.47610	  0.40016	  4.21688	  1.62465	  2.73744	 -0.17932	  4.92925	707.58801	 23.50	
 13.601	-158.353	  4.46554	  0.46070	  4.12449	  1.39053	  2.98400	 -0.18001	  4.92105	706.29303	 23.50	
 13.609	-151.210	  4.47516	  0.54475	  4.02137	  1.18270	  3.22845	 -0.18022	  4.93725	707.88599	 23.50	
 13.611	-143.999	  4.45114	  0.65330	  3.85421	  0.98474	  3.43713	 -0.17569	  4.91464	706.35303	 23.50	
 13.601	-136.825	  4.45432	  0.78789	  3.68483	  0.81100	  3.64992	 -0.17191	  4.91935	707.96198	 23.50	
 13.596	-129.640	  4.44337	  0.94472	  3.47845	  0.65819	  3.82700	 -0.16648	  4.91026	707.99597	 23.50	
