FileType=PCF
NHL=14
Date=08/30/17	16:01:02
Facility=APL
Serial=16328-19
Customer=NASA
NP=6
Mach=0.050000
Calibration=1:1
CalPts=490
TstPts=95
PortNumbering=AP Standard
Units=Torr C m/s kg/m^3 deg mm 
Theta[deg]	Phi[deg]	P1[Torr]	P2[Torr]	P3[Torr]	P4[Torr]	P5[Torr]	P6[Torr]	Pt[Torr]	Ps[Abs,Torr]	Ts[C]	
  0.000	  0.000	  1.37992	  0.72770	  0.73249	  0.72983	  0.76057	  0.00467	  1.37266	705.04303	 22.30	
  1.691	128.401	  1.38046	  0.69682	  0.76381	  0.77102	  0.71480	  0.00428	  1.37331	705.00800	 22.30	
  1.692	 77.194	  1.37971	  0.74194	  0.71460	  0.78325	  0.70222	  0.00411	  1.37283	705.02899	 22.30	
  1.699	 26.182	  1.38273	  0.78938	  0.67381	  0.74914	  0.73423	  0.00373	  1.37598	705.05499	 22.30	
  1.699	-26.182	  1.38053	  0.78698	  0.67195	  0.69203	  0.79026	  0.00234	  1.37450	705.14502	 22.30	
  1.692	-77.194	  1.38048	  0.73911	  0.71190	  0.66291	  0.82538	  0.00201	  1.37429	705.11102	 22.30	
  1.691	-128.401	  1.37718	  0.68583	  0.76453	  0.67115	  0.81042	  0.00314	  1.37044	705.04102	 22.30	
  1.700	180.000	  1.37921	  0.66777	  0.79108	  0.72168	  0.75916	  0.00491	  1.37221	705.00500	 22.30	
  3.400	180.000	  1.37775	  0.59481	  0.85945	  0.71420	  0.75422	  0.00102	  1.37351	705.15900	 22.30	
  3.388	-152.325	  1.37820	  0.60828	  0.84177	  0.65384	  0.81929	 -0.00052	  1.37442	705.01801	 22.30	
  3.397	-124.529	  1.37391	  0.64435	  0.79496	  0.60659	  0.86691	 -0.00095	  1.37056	705.11499	 22.30	
  3.399	-96.763	  1.37525	  0.70481	  0.73369	  0.58819	  0.89273	 -0.00175	  1.37247	705.16803	 22.30	
  3.394	-69.283	  1.37567	  0.76847	  0.67243	  0.59520	  0.88483	 -0.00117	  1.37260	704.98499	 22.30	
  3.400	-41.398	  1.37329	  0.82403	  0.62039	  0.62592	  0.84537	 -0.00113	  1.36930	704.94800	 22.30	
  3.401	-14.021	  1.37476	  0.85664	  0.59428	  0.67797	  0.79006	 -0.00162	  1.36965	705.08801	 22.30	
  3.401	 14.021	  1.37282	  0.85586	  0.59489	  0.74284	  0.72203	 -0.00001	  1.36660	705.07397	 22.30	
  3.400	 41.398	  1.37261	  0.82681	  0.62003	  0.80152	  0.66758	  0.00132	  1.36653	705.00403	 22.30	
  3.394	 69.283	  1.37686	  0.77132	  0.67297	  0.84279	  0.63827	  0.00150	  1.37145	705.14697	 22.30	
  3.399	 96.763	  1.37740	  0.70820	  0.73478	  0.85071	  0.63445	  0.00152	  1.37232	704.95300	 22.30	
  3.397	124.529	  1.37707	  0.65125	  0.79597	  0.82755	  0.65269	  0.00279	  1.37204	705.05798	 22.30	
  3.388	152.325	  1.37481	  0.60838	  0.84122	  0.77684	  0.69285	  0.00103	  1.37066	705.05798	 22.30	
  5.099	161.165	  1.36877	  0.53153	  0.90981	  0.77286	  0.68003	 -0.00331	  1.36989	704.98700	 22.30	
  5.109	142.013	  1.37089	  0.56113	  0.87724	  0.83475	  0.62562	 -0.00314	  1.37215	704.90302	 22.30	
  5.095	123.033	  1.37136	  0.60771	  0.82333	  0.88152	  0.58709	 -0.00486	  1.37050	705.03302	 22.30	
  5.105	104.191	  1.37138	  0.66509	  0.75988	  0.91039	  0.56325	 -0.00385	  1.37087	705.00098	 22.30	
  5.093	 85.207	  1.37623	  0.73532	  0.69428	  0.91831	  0.56050	 -0.00473	  1.37479	705.00500	 22.30	
  5.104	 66.290	  1.37509	  0.80171	  0.63140	  0.90125	  0.57346	 -0.00327	  1.37502	705.12201	 22.30	
  5.094	 47.331	  1.37391	  0.86008	  0.57841	  0.85896	  0.60507	 -0.00460	  1.37315	705.01202	 22.30	
  5.089	 28.397	  1.37231	  0.90298	  0.53958	  0.80286	  0.65351	 -0.00354	  1.37246	705.00800	 22.30	
  5.096	  9.576	  1.37150	  0.92523	  0.51925	  0.73853	  0.71449	 -0.00457	  1.37324	705.10797	 22.30	
  5.096	 -9.576	  1.36990	  0.92371	  0.51950	  0.66830	  0.78275	 -0.00589	  1.37271	705.21198	 22.30	
  5.089	-28.397	  1.36777	  0.89815	  0.53647	  0.60773	  0.84531	 -0.00890	  1.37146	705.05798	 22.30	
  5.094	-47.331	  1.37092	  0.85429	  0.57808	  0.56012	  0.90350	 -0.00810	  1.37516	704.97302	 22.30	
  5.104	-66.290	  1.37063	  0.79542	  0.62799	  0.52420	  0.94474	 -0.00925	  1.37628	705.15002	 22.30	
  5.093	-85.207	  1.36799	  0.72673	  0.69180	  0.50969	  0.95989	 -0.00925	  1.37336	705.00500	 22.30	
  5.105	-104.191	  1.36729	  0.65805	  0.75956	  0.51492	  0.95266	 -0.00846	  1.37194	705.01202	 22.30	
  5.095	-123.033	  1.36811	  0.59923	  0.82429	  0.54073	  0.92311	 -0.00684	  1.37313	705.09998	 22.30	
  5.109	-142.013	  1.36975	  0.55381	  0.87907	  0.58352	  0.87528	 -0.00592	  1.37404	705.11401	 22.30	
  5.099	-161.165	  1.37196	  0.52759	  0.91394	  0.64314	  0.81384	 -0.00388	  1.37480	705.09802	 22.30	
  5.100	180.000	  1.36945	  0.51868	  0.92278	  0.70444	  0.74572	 -0.00436	  1.37227	704.99799	 22.30	
  6.800	180.000	  1.36200	  0.44037	  0.99012	  0.69440	  0.73406	 -0.01146	  1.37603	704.95300	 22.30	
  6.796	-166.229	  1.35506	  0.44400	  0.97688	  0.62795	  0.79655	 -0.01099	  1.37164	705.05200	 22.30	
  6.808	-152.311	  1.34949	  0.46089	  0.94856	  0.56418	  0.85821	 -0.01202	  1.36690	704.88599	 22.30	
  6.795	-138.383	  1.34969	  0.49365	  0.90743	  0.51170	  0.91679	 -0.01466	  1.36874	704.98700	 22.30	
  6.792	-124.591	  1.35144	  0.54107	  0.85617	  0.47366	  0.96548	 -0.01476	  1.37023	704.99597	 22.30	
  6.787	-110.754	  1.35212	  0.59761	  0.79428	  0.44631	  0.99866	 -0.01488	  1.37172	705.02899	 22.30	
  6.800	-96.985	  1.34982	  0.65981	  0.72905	  0.43343	  1.01452	 -0.01536	  1.36962	705.01898	 22.30	
  6.800	-83.015	  1.35072	  0.72524	  0.66151	  0.43135	  1.01657	 -0.01857	  1.36924	704.97699	 22.30	
  6.787	-69.246	  1.35307	  0.79352	  0.60028	  0.44616	  1.00032	 -0.01822	  1.37247	705.13599	 22.30	
  6.792	-55.409	  1.35365	  0.85572	  0.54315	  0.47035	  0.97043	 -0.01781	  1.37266	705.01300	 22.30	
  6.795	-41.617	  1.35567	  0.91013	  0.49981	  0.51315	  0.92416	 -0.01656	  1.37251	704.97699	 22.30	
  6.808	-27.689	  1.35494	  0.95150	  0.46259	  0.56184	  0.86653	 -0.01735	  1.37067	704.89099	 22.30	
  6.796	-13.771	  1.35654	  0.97912	  0.44342	  0.62254	  0.80220	 -0.01438	  1.37031	705.11401	 22.30	
  6.800	  0.000	  1.35952	  0.98992	  0.43723	  0.68798	  0.73688	 -0.01404	  1.37298	704.99799	 22.30	
  6.796	 13.771	  1.35737	  0.98041	  0.44360	  0.75465	  0.66968	 -0.01341	  1.36892	705.03601	 22.30	
  6.808	 27.689	  1.35696	  0.95696	  0.46286	  0.81887	  0.61001	 -0.01228	  1.36841	705.04700	 22.30	
  6.795	 41.617	  1.36369	  0.92052	  0.50069	  0.87985	  0.56296	 -0.01031	  1.37300	705.06403	 22.30	
  6.792	 55.409	  1.36415	  0.86773	  0.54765	  0.92789	  0.52401	 -0.01045	  1.37258	705.10498	 22.30	
  6.787	 69.246	  1.36521	  0.80471	  0.60307	  0.96319	  0.49509	 -0.01182	  1.37357	704.98102	 22.30	
  6.800	 83.015	  1.36312	  0.73745	  0.66416	  0.97973	  0.48070	 -0.01129	  1.37178	705.04700	 22.30	
  6.800	 96.985	  1.36212	  0.66986	  0.73076	  0.97944	  0.48136	 -0.01323	  1.37063	705.22601	 22.30	
  6.787	110.754	  1.36259	  0.60967	  0.79506	  0.96323	  0.49681	 -0.01159	  1.37109	705.04999	 22.30	
  6.792	124.591	  1.36372	  0.55441	  0.85822	  0.93049	  0.52414	 -0.01083	  1.37260	705.02100	 22.30	
  6.795	138.383	  1.36136	  0.50820	  0.91074	  0.88159	  0.56285	 -0.00989	  1.37102	705.04999	 22.30	
  6.808	152.311	  1.35768	  0.47042	  0.95010	  0.82221	  0.61008	 -0.01072	  1.36978	705.10498	 22.30	
  6.796	166.229	  1.35732	  0.44809	  0.97712	  0.75957	  0.66796	 -0.01010	  1.37009	705.10498	 22.30	
  8.491	168.704	  1.34011	  0.36929	  1.03409	  0.74639	  0.64924	 -0.01780	  1.36977	704.99402	 22.30	
  8.502	157.493	  1.34410	  0.38781	  1.01570	  0.81303	  0.58984	 -0.01817	  1.37242	705.10303	 22.30	
  8.494	146.194	  1.34305	  0.41451	  0.97952	  0.87378	  0.53457	 -0.01968	  1.37001	705.00800	 22.30	
  8.495	135.039	  1.34695	  0.45488	  0.93580	  0.93256	  0.48878	 -0.01884	  1.37272	705.05499	 22.30	
  8.487	123.723	  1.34364	  0.50231	  0.87694	  0.97500	  0.45075	 -0.01876	  1.36820	705.12201	 22.30	
  8.492	112.575	  1.34375	  0.55826	  0.81369	  1.00991	  0.42272	 -0.01986	  1.36844	704.99402	 22.30	
  8.510	101.220	  1.34373	  0.62189	  0.74550	  1.03150	  0.40528	 -0.01965	  1.36760	705.00800	 22.30	
  8.500	 90.000	  1.34548	  0.68846	  0.67792	  1.03758	  0.40158	 -0.01945	  1.36832	704.93903	 22.30	
  8.510	 78.780	  1.34650	  0.75777	  0.61304	  1.03040	  0.40756	 -0.01870	  1.36911	704.92200	 22.30	
  8.492	 67.425	  1.34229	  0.82188	  0.54681	  1.00343	  0.42150	 -0.02282	  1.36588	704.94800	 22.30	
  8.487	 56.277	  1.34853	  0.88875	  0.49650	  0.97479	  0.45294	 -0.01798	  1.37270	704.98798	 22.30	
  8.495	 44.961	  1.34565	  0.94334	  0.44666	  0.92637	  0.49028	 -0.01747	  1.37087	705.06299	 22.30	
  8.494	 33.806	  1.35082	  0.99107	  0.41197	  0.87345	  0.53938	 -0.02020	  1.37680	705.04999	 22.30	
  8.502	 22.507	  1.34512	  1.02255	  0.38111	  0.80927	  0.59224	 -0.02072	  1.37298	705.04102	 22.30	
  8.491	 11.296	  1.34034	  1.04041	  0.36355	  0.74018	  0.65273	 -0.01992	  1.36890	705.00800	 22.30	
  8.500	  0.000	  1.34005	  1.04823	  0.35654	  0.66981	  0.72086	 -0.02099	  1.36961	705.00201	 22.30	
  8.491	-11.296	  1.34170	  1.03921	  0.36322	  0.60380	  0.78921	 -0.02509	  1.37257	704.99402	 22.30	
  8.502	-22.507	  1.33928	  1.01749	  0.38016	  0.54340	  0.85444	 -0.02302	  1.37150	705.10303	 22.30	
  8.494	-33.806	  1.33225	  0.97635	  0.40581	  0.48330	  0.91326	 -0.02532	  1.36560	705.08002	 22.20	
  8.495	-44.961	  1.33418	  0.93046	  0.44398	  0.43671	  0.96970	 -0.02647	  1.36902	705.08600	 22.20	
  8.487	-56.277	  1.33728	  0.87499	  0.49544	  0.40113	  1.01808	 -0.02711	  1.37404	704.98700	 22.20	
  8.492	-67.425	  1.33790	  0.81499	  0.55036	  0.37740	  1.04969	 -0.02748	  1.37501	704.96301	 22.20	
  8.510	-78.780	  1.33492	  0.74569	  0.61196	  0.35634	  1.07120	 -0.02827	  1.37311	705.02899	 22.20	
  8.500	-90.000	  1.33495	  0.67700	  0.67748	  0.34992	  1.07872	 -0.02977	  1.37362	705.03601	 22.20	
  8.510	-101.220	  1.33203	  0.60872	  0.74656	  0.35754	  1.06780	 -0.02398	  1.37074	704.98798	 22.20	
  8.492	-112.575	  1.33400	  0.54522	  0.81604	  0.37543	  1.04726	 -0.02359	  1.37202	704.95697	 22.20	
  8.487	-123.723	  1.33538	  0.49205	  0.87793	  0.40299	  1.01450	 -0.02348	  1.37376	705.07202	 22.20	
  8.495	-135.039	  1.33823	  0.44508	  0.93661	  0.44375	  0.97012	 -0.01950	  1.37582	704.97400	 22.20	
  8.494	-146.194	  1.33736	  0.40664	  0.98030	  0.49001	  0.91388	 -0.01969	  1.37328	705.15002	 22.20	
  8.502	-157.493	  1.33673	  0.37896	  1.01539	  0.54813	  0.84909	 -0.01948	  1.37122	704.98798	 22.20	
  8.491	-168.704	  1.34166	  0.36150	  1.03949	  0.61120	  0.78308	 -0.02061	  1.37583	704.94800	 22.20	
  8.500	180.000	  1.33982	  0.36139	  1.04365	  0.67486	  0.71868	 -0.01886	  1.37136	704.93903	 22.20	
 10.200	180.000	  1.31731	  0.27888	  1.09726	  0.65648	  0.69547	 -0.02842	  1.37094	705.06000	 22.20	
 10.191	-170.497	  1.31688	  0.28298	  1.09217	  0.59051	  0.76376	 -0.02874	  1.37218	704.95398	 22.20	
 10.210	-161.034	  1.31342	  0.29455	  1.07314	  0.52541	  0.83010	 -0.02925	  1.37083	704.84698	 22.20	
 10.194	-151.526	  1.31221	  0.31743	  1.04299	  0.46425	  0.89584	 -0.02855	  1.37136	704.98102	 22.20	
 10.190	-142.105	  1.31372	  0.34851	  1.00378	  0.41192	  0.95774	 -0.02890	  1.37402	704.90002	 22.20	
 10.215	-132.646	  1.31217	  0.38835	  0.95237	  0.36681	  1.01094	 -0.02954	  1.37433	704.97699	 22.20	
 10.203	-123.092	  1.30664	  0.43296	  0.89124	  0.32416	  1.05375	 -0.03521	  1.37061	704.86700	 22.20	
 10.192	-113.678	  1.31022	  0.49334	  0.83044	  0.30185	  1.08961	 -0.03316	  1.37296	704.90100	 22.20	
 10.208	-104.249	  1.30708	  0.55230	  0.76086	  0.27983	  1.11395	 -0.03550	  1.37037	705.04999	 22.20	
 10.210	-94.801	  1.31287	  0.61991	  0.69591	  0.27082	  1.13167	 -0.03657	  1.37648	704.95599	 22.20	
 10.210	-85.199	  1.30779	  0.68786	  0.62178	  0.26833	  1.12817	 -0.04053	  1.37170	704.96997	 22.20	
 10.208	-75.751	  1.31268	  0.76030	  0.55897	  0.28237	  1.11796	 -0.03976	  1.37458	705.03601	 22.20	
 10.192	-66.322	  1.30876	  0.82316	  0.49643	  0.29791	  1.09061	 -0.03943	  1.36990	705.07501	 22.20	
 10.203	-56.908	  1.31037	  0.88935	  0.43902	  0.32486	  1.05761	 -0.03780	  1.37077	705.00201	 22.20	
 10.215	-47.354	  1.31010	  0.94772	  0.38983	  0.36186	  1.01200	 -0.03502	  1.36951	704.97900	 22.20	
 10.190	-37.895	  1.31360	  1.00030	  0.35137	  0.40801	  0.96002	 -0.03623	  1.37134	704.96997	 22.20	
 10.194	-28.474	  1.31514	  1.04360	  0.31699	  0.45960	  0.90136	 -0.03504	  1.37161	704.95599	 22.20	
 10.210	-18.966	  1.31086	  1.06962	  0.29339	  0.51657	  0.83259	 -0.03344	  1.36625	704.96002	 22.20	
 10.191	 -9.503	  1.31163	  1.08751	  0.28051	  0.57942	  0.76578	 -0.03116	  1.36415	704.80103	 22.20	
 10.200	  0.000	  1.31891	  1.10101	  0.27660	  0.65059	  0.70089	 -0.03252	  1.37101	704.98999	 22.20	
 10.191	  9.503	  1.32091	  1.09664	  0.28168	  0.72168	  0.63266	 -0.03179	  1.37147	705.01202	 22.20	
 10.210	 18.966	  1.31816	  1.07735	  0.29331	  0.78693	  0.56714	 -0.03191	  1.36651	704.90601	 22.20	
 10.194	 28.474	  1.32211	  1.05056	  0.31873	  0.85531	  0.51006	 -0.02810	  1.36974	704.97302	 22.20	
 10.190	 37.895	  1.32470	  1.01283	  0.35103	  0.91797	  0.45794	 -0.02701	  1.37206	704.95697	 22.20	
 10.215	 47.354	  1.32560	  0.96416	  0.39326	  0.97264	  0.41527	 -0.02579	  1.37055	705.04999	 22.20	
 10.203	 56.908	  1.32844	  0.90808	  0.44333	  1.01911	  0.38064	 -0.02792	  1.37195	704.91400	 22.20	
 10.192	 66.322	  1.32809	  0.84270	  0.49991	  1.05382	  0.35328	 -0.02757	  1.37043	704.94202	 22.20	
 10.208	 75.751	  1.32549	  0.77491	  0.55806	  1.07796	  0.33305	 -0.02866	  1.36875	704.88702	 22.20	
 10.210	 85.199	  1.32980	  0.70701	  0.62584	  1.09386	  0.32322	 -0.02954	  1.37190	704.93402	 22.20	
 10.210	 94.801	  1.32744	  0.63784	  0.69441	  1.09374	  0.32379	 -0.02966	  1.37119	704.75702	 22.20	
 10.208	104.249	  1.32490	  0.57125	  0.76007	  1.07907	  0.33233	 -0.03199	  1.36870	704.86700	 22.20	
 10.192	113.678	  1.32388	  0.50912	  0.82912	  1.05486	  0.35208	 -0.02857	  1.36804	704.83801	 22.20	
 10.203	123.092	  1.32557	  0.45222	  0.89463	  1.02300	  0.37786	 -0.02831	  1.37082	704.82397	 22.20	
 10.215	132.646	  1.32362	  0.40227	  0.95140	  0.97642	  0.41324	 -0.02747	  1.37004	704.92297	 22.20	
 10.190	142.105	  1.32280	  0.36126	  1.00218	  0.92263	  0.45898	 -0.02702	  1.37028	704.85999	 22.20	
 10.194	151.526	  1.31985	  0.32762	  1.04111	  0.86050	  0.50825	 -0.02864	  1.36872	704.92200	 22.20	
 10.210	161.034	  1.32110	  0.30018	  1.07485	  0.79537	  0.56793	 -0.02719	  1.37148	704.88300	 22.20	
 10.191	170.497	  1.31792	  0.28563	  1.09123	  0.72672	  0.62739	 -0.02753	  1.36978	704.83600	 22.20	
 11.899	171.783	  1.29533	  0.20677	  1.14420	  0.70610	  0.60713	 -0.03687	  1.37448	704.83002	 22.20	
 11.890	163.610	  1.28910	  0.21745	  1.12288	  0.77056	  0.54062	 -0.03692	  1.36718	704.75403	 22.20	
 11.889	155.445	  1.28782	  0.23810	  1.09304	  0.83664	  0.47933	 -0.03755	  1.36330	704.83899	 22.20	
 11.909	147.299	  1.29190	  0.26513	  1.06188	  0.90386	  0.42490	 -0.03936	  1.36813	704.86902	 22.20	
 11.902	139.148	  1.29610	  0.30413	  1.01649	  0.96299	  0.37981	 -0.03753	  1.36865	704.84698	 22.20	
 11.894	130.867	  1.29827	  0.34943	  0.96430	  1.01651	  0.33907	 -0.03914	  1.36970	704.86902	 22.20	
 11.897	122.732	  1.29785	  0.39657	  0.90636	  1.06150	  0.30313	 -0.04074	  1.36848	704.75098	 22.20	
 11.903	114.597	  1.29905	  0.45325	  0.84177	  1.09698	  0.27594	 -0.04173	  1.36858	704.71100	 22.20	
 11.893	106.346	  1.30099	  0.51562	  0.77454	  1.12431	  0.25767	 -0.04176	  1.36961	704.71802	 22.20	
 11.892	 98.155	  1.30384	  0.58288	  0.70581	  1.14104	  0.24649	 -0.04170	  1.37250	704.80103	 22.20	
 11.900	 90.000	  1.30224	  0.64948	  0.63643	  1.14520	  0.24173	 -0.04089	  1.37056	704.84198	 22.20	
 11.892	 81.845	  1.30087	  0.71767	  0.56801	  1.13676	  0.24672	 -0.03942	  1.36900	704.96002	 22.20	
 11.893	 73.654	  1.30036	  0.78740	  0.50123	  1.12036	  0.25627	 -0.03862	  1.36922	704.86902	 22.20	
 11.903	 65.403	  1.29925	  0.85364	  0.44210	  1.09302	  0.27569	 -0.03889	  1.36769	704.77399	 22.20	
 11.897	 57.268	  1.29958	  0.91787	  0.38745	  1.05690	  0.30442	 -0.03836	  1.36938	704.91699	 22.20	
 11.894	 49.133	  1.30132	  0.97643	  0.34073	  1.01218	  0.34138	 -0.03796	  1.37112	704.76501	 22.20	
 11.902	 40.852	  1.29216	  1.02526	  0.29446	  0.95249	  0.38176	 -0.03551	  1.36320	704.83600	 22.20	
 11.909	 32.701	  1.29951	  1.07527	  0.26041	  0.89966	  0.43005	 -0.03751	  1.37409	704.82703	 22.20	
 11.889	 24.555	  1.29492	  1.10562	  0.23199	  0.83302	  0.48546	 -0.04083	  1.36909	704.73901	 22.20	
 11.890	 16.390	  1.29122	  1.12779	  0.21235	  0.76315	  0.54468	 -0.04179	  1.36600	704.88702	 22.20	
 11.899	  8.217	  1.29119	  1.14409	  0.20011	  0.69461	  0.60916	 -0.04145	  1.36703	704.72101	 22.20	
 11.900	  0.000	  1.28788	  1.14680	  0.19526	  0.62554	  0.67529	 -0.03956	  1.36573	704.80499	 22.20	
 11.899	 -8.217	  1.28991	  1.14380	  0.19823	  0.55768	  0.74531	 -0.04179	  1.37033	704.76599	 22.20	
 11.890	-16.390	  1.29136	  1.12787	  0.21171	  0.49477	  0.81485	 -0.04244	  1.37374	704.78497	 22.20	
 11.889	-24.555	  1.29044	  1.10130	  0.23084	  0.43430	  0.88234	 -0.04393	  1.37435	704.83600	 22.20	
 11.909	-32.701	  1.28845	  1.06238	  0.25979	  0.37918	  0.94490	 -0.04530	  1.37302	704.83197	 22.20	
 11.902	-40.852	  1.28541	  1.01583	  0.29385	  0.33174	  0.99930	 -0.04679	  1.37110	704.86700	 22.20	
 11.894	-49.133	  1.28095	  0.95928	  0.33647	  0.28714	  1.04995	 -0.04612	  1.36854	704.74597	 22.20	
 11.897	-57.268	  1.28127	  0.89827	  0.38730	  0.25302	  1.09478	 -0.04660	  1.36965	704.65900	 22.20	
 11.903	-65.403	  1.27953	  0.83482	  0.43915	  0.22453	  1.12850	 -0.04999	  1.36892	704.79102	 22.20	
 11.893	-73.654	  1.27902	  0.76667	  0.50098	  0.20563	  1.15383	 -0.05004	  1.36986	704.73901	 22.20	
 11.892	-81.845	  1.28167	  0.69875	  0.56821	  0.19471	  1.17160	 -0.04919	  1.37293	704.82202	 22.20	
 11.900	-90.000	  1.27436	  0.62623	  0.63240	  0.18925	  1.17097	 -0.05122	  1.36645	704.77600	 22.20	
 11.892	-98.155	  1.27512	  0.56073	  0.70129	  0.19422	  1.16630	 -0.04835	  1.36642	704.86401	 22.20	
 11.893	-106.346	  1.27340	  0.49189	  0.77001	  0.20352	  1.15007	 -0.04881	  1.36563	704.84399	 22.20	
 11.903	-114.597	  1.27458	  0.43221	  0.83833	  0.22596	  1.12337	 -0.04493	  1.36685	704.85602	 22.20	
 11.897	-122.732	  1.27952	  0.38256	  0.90386	  0.25486	  1.09233	 -0.04199	  1.37160	704.72101	 22.20	
 11.894	-130.867	  1.28347	  0.33428	  0.96474	  0.29135	  1.04926	 -0.04148	  1.37386	704.81598	 22.20	
 11.902	-139.148	  1.28004	  0.28945	  1.01687	  0.33351	  0.99360	 -0.03860	  1.36895	704.89099	 22.20	
 11.909	-147.299	  1.28111	  0.25663	  1.06158	  0.38402	  0.93673	 -0.03893	  1.37012	704.86401	 22.20	
 11.889	-155.445	  1.28618	  0.23020	  1.10029	  0.44131	  0.87538	 -0.03904	  1.37287	704.83002	 22.20	
 11.890	-163.610	  1.28800	  0.21394	  1.12573	  0.50295	  0.80936	 -0.03962	  1.37218	704.70398	 22.20	
 11.899	-171.783	  1.28541	  0.20344	  1.13790	  0.56546	  0.73897	 -0.03995	  1.36757	704.72803	 22.20	
 11.900	180.000	  1.29065	  0.19994	  1.14736	  0.63520	  0.67270	 -0.03822	  1.37139	704.78003	 22.20	
 13.600	180.000	  1.25466	  0.11999	  1.18872	  0.60675	  0.64324	 -0.05115	  1.36796	704.71100	 22.30	
 13.608	-172.853	  1.25051	  0.12162	  1.18227	  0.53973	  0.70980	 -0.05037	  1.36541	704.80402	 22.30	
 13.611	-165.583	  1.25237	  0.13028	  1.17228	  0.47471	  0.77998	 -0.05009	  1.36961	704.87799	 22.30	
 13.601	-158.353	  1.24963	  0.14642	  1.14586	  0.41110	  0.84790	 -0.04942	  1.36845	704.72601	 22.20	
 13.609	-151.210	  1.24804	  0.16943	  1.11395	  0.35565	  0.91172	 -0.04741	  1.36918	704.69800	 22.30	
 13.611	-143.999	  1.24797	  0.19539	  1.07637	  0.30173	  0.97373	 -0.05063	  1.37130	704.83502	 22.30	
 13.601	-136.825	  1.24653	  0.23366	  1.02591	  0.25380	  1.03152	 -0.05165	  1.37107	704.71698	 22.30	
 13.596	-129.640	  1.24529	  0.27643	  0.97056	  0.21447	  1.08059	 -0.04982	  1.37016	704.72900	 22.30	
