FileType=PCF
NHL=14
Date=08/30/17	13:32:38
Facility=APL
Serial=16328-19
Customer=NASA
NP=6
Mach=0.250000
Calibration=1:1
CalPts=490
TstPts=95
PortNumbering=AP Standard
Units=Torr C m/s kg/m^3 deg mm 
Theta[deg]	Phi[deg]	P1[Torr]	P2[Torr]	P3[Torr]	P4[Torr]	P5[Torr]	P6[Torr]	Pt[Torr]	Ps[Abs,Torr]	Ts[C]	
  0.000	  0.000	 30.33425	 15.79087	 16.06150	 15.79634	 16.55832	  0.34433	 30.28457	704.83197	 23.40	
  1.691	128.401	 30.30387	 14.79798	 16.95862	 16.87872	 15.19755	  0.32172	 30.25900	704.88397	 23.40	
  1.692	 77.194	 30.34942	 16.11924	 15.69913	 17.18748	 14.92969	  0.33811	 30.30319	704.89398	 23.40	
  1.699	 26.182	 30.27378	 17.20317	 14.64443	 16.35692	 15.70388	  0.34207	 30.23018	704.72101	 23.40	
  1.699	-26.182	 30.33307	 17.20341	 14.67903	 15.07568	 17.20421	  0.31992	 30.28885	704.77002	 23.40	
  1.692	-77.194	 30.29653	 16.05834	 15.66357	 14.27075	 18.00249	  0.31444	 30.25865	704.69501	 23.40	
  1.691	-128.401	 30.31431	 14.77108	 16.94239	 14.55922	 17.69974	  0.31395	 30.27472	704.80798	 23.40	
  1.700	180.000	 30.31970	 14.18334	 17.56488	 15.73899	 16.47024	  0.32528	 30.27644	704.76202	 23.40	
  3.400	180.000	 30.24509	 12.50828	 18.90346	 15.57887	 16.25659	  0.27113	 30.26930	704.77399	 23.40	
  3.388	-152.325	 30.24035	 12.83635	 18.59107	 14.18420	 17.77275	  0.26848	 30.28689	704.77399	 23.40	
  3.397	-124.529	 30.25490	 13.81728	 17.64821	 13.09757	 18.88540	  0.25513	 30.31570	704.65900	 23.40	
  3.399	-96.763	 30.26676	 15.22429	 16.21972	 12.59173	 19.42398	  0.23209	 30.31179	704.83502	 23.40	
  3.394	-69.283	 30.22421	 16.69100	 14.81286	 12.74308	 19.22652	  0.23405	 30.26012	704.76599	 23.40	
  3.400	-41.398	 30.24350	 17.98135	 13.60522	 13.58079	 18.40937	  0.24713	 30.26421	704.72101	 23.40	
  3.401	-14.021	 30.26149	 18.68543	 12.93169	 14.85285	 17.11604	  0.26274	 30.26114	704.79901	 23.40	
  3.401	 14.021	 30.26938	 18.72388	 12.92796	 16.30242	 15.50572	  0.27592	 30.25578	704.79700	 23.40	
  3.400	 41.398	 30.26777	 18.05809	 13.60018	 17.62789	 14.21873	  0.28544	 30.24298	704.81500	 23.40	
  3.394	 69.283	 30.26026	 16.81816	 14.79548	 18.50921	 13.39917	  0.29006	 30.23143	704.83197	 23.40	
  3.399	 96.763	 30.29304	 15.31875	 16.18314	 18.69615	 13.25306	  0.28769	 30.27870	704.80499	 23.30	
  3.397	124.529	 30.24907	 13.89050	 17.61678	 18.13698	 13.72995	  0.28416	 30.22951	704.73901	 23.40	
  3.388	152.325	 30.23254	 12.89892	 18.58748	 16.94440	 14.80175	  0.28945	 30.23407	704.78802	 23.40	
  5.099	161.165	 30.09458	 10.84739	 20.07743	 16.76591	 14.51464	  0.11198	 30.26501	704.79102	 23.30	
  5.109	142.013	 30.09023	 11.74399	 19.28006	 18.14220	 13.16397	  0.16517	 30.23559	704.80798	 23.30	
  5.095	123.033	 30.14645	 12.94737	 18.21877	 19.28696	 12.26189	  0.13959	 30.26372	704.75098	 23.30	
  5.105	104.191	 30.12244	 14.33438	 16.80932	 19.99434	 11.64621	  0.13317	 30.22029	704.83899	 23.30	
  5.093	 85.207	 30.15349	 15.84046	 15.28158	 20.12027	 11.51724	  0.10387	 30.24150	704.82898	 23.30	
  5.104	 66.290	 30.17619	 17.44004	 13.85061	 19.73487	 11.89399	  0.20219	 30.25841	704.81299	 23.30	
  5.094	 47.331	 30.17305	 18.69856	 12.59052	 18.83223	 12.72599	  0.19389	 30.26621	704.87201	 23.30	
  5.089	 28.397	 30.14723	 19.56764	 11.66445	 17.54109	 13.86642	  0.10741	 30.25294	704.86102	 23.30	
  5.096	  9.576	 30.13379	 20.07259	 11.11673	 16.09863	 15.24913	  0.17266	 30.25035	704.87000	 23.30	
  5.096	 -9.576	 30.09704	 20.04334	 11.09233	 14.59921	 16.86965	  0.16075	 30.23489	704.89099	 23.30	
  5.089	-28.397	 30.05302	 19.46333	 11.58892	 13.17911	 18.29303	  0.05861	 30.21000	704.84998	 23.30	
  5.094	-47.331	 30.06187	 18.56990	 12.52726	 11.97130	 19.49679	  0.07227	 30.24374	704.89099	 23.30	
  5.104	-66.290	 30.01778	 17.24052	 13.80399	 11.07295	 20.24476	  0.02639	 30.23233	704.71100	 23.30	
  5.093	-85.207	 30.00841	 15.72092	 15.23222	 10.71699	 20.65817	  0.08933	 30.24510	704.82098	 23.30	
  5.105	-104.191	 30.01494	 14.18619	 16.65300	 10.90380	 20.52416	  0.04379	 30.25837	704.77600	 23.30	
  5.095	-123.033	 29.97995	 12.79370	 18.10389	 11.50210	 19.90391	  0.07546	 30.22707	704.89398	 23.30	
  5.109	-142.013	 30.01360	 11.65005	 19.27524	 12.53306	 18.91237	  0.10495	 30.25738	704.83801	 23.30	
  5.099	-161.165	 30.04262	 10.78959	 20.09181	 13.88860	 17.56147	  0.09177	 30.26051	704.76202	 23.30	
  5.100	180.000	 30.08819	 10.58976	 20.36682	 15.32200	 16.01837	  0.13074	 30.27828	704.90002	 23.30	
  6.800	180.000	 29.77861	  8.94186	 21.69047	 14.98230	 15.65559	 -0.06247	 30.25434	704.86700	 23.30	
  6.796	-166.229	 29.69068	  9.05110	 21.46712	 13.50666	 17.17603	 -0.08562	 30.19984	704.88397	 23.30	
  6.808	-152.311	 29.69462	  9.50806	 20.93900	 12.11968	 18.62504	 -0.08006	 30.22962	704.85999	 23.30	
  6.795	-138.383	 29.65427	 10.20274	 19.99831	 10.80274	 19.83936	 -0.09647	 30.20422	704.95001	 23.30	
  6.792	-124.591	 29.68292	 11.29602	 18.77545	  9.81609	 20.82996	 -0.12114	 30.25069	704.83899	 23.30	
  6.787	-110.754	 29.66994	 12.74091	 17.46395	  9.24914	 21.55950	 -0.15148	 30.24143	704.88599	 23.30	
  6.800	-96.985	 29.64660	 14.17850	 15.98275	  8.96505	 21.92966	 -0.19702	 30.20889	704.89502	 23.30	
  6.800	-83.015	 29.71133	 15.72028	 14.58315	  8.96706	 21.96797	 -0.20565	 30.24480	704.90601	 23.30	
  6.787	-69.246	 29.71824	 17.23771	 13.14035	  9.23370	 21.60468	 -0.20098	 30.23615	704.83502	 23.30	
  6.792	-55.409	 29.73011	 18.59564	 11.80341	  9.83114	 20.88968	 -0.17581	 30.22236	704.94501	 23.30	
  6.795	-41.617	 29.79727	 19.75164	 10.69129	 10.84170	 19.93215	 -0.15197	 30.25453	704.90002	 23.30	
  6.808	-27.689	 29.79716	 20.66810	  9.80366	 12.14867	 18.69203	 -0.12078	 30.22426	705.01001	 23.30	
  6.796	-13.771	 29.84403	 21.27517	  9.39705	 13.59307	 17.29067	 -0.09891	 30.24249	704.93103	 23.30	
  6.800	  0.000	 29.85172	 21.48246	  9.23036	 15.04720	 15.68737	 -0.07655	 30.23241	704.90802	 23.30	
  6.796	 13.771	 29.89942	 21.32947	  9.38002	 16.48542	 14.23681	 -0.06811	 30.25192	704.92902	 23.30	
  6.808	 27.689	 29.87433	 20.76454	  9.78646	 17.91351	 12.84485	 -0.05533	 30.21168	704.76202	 23.20	
  6.795	 41.617	 29.91083	 19.88946	 10.63450	 19.20894	 11.44154	 -0.03933	 30.23420	704.79102	 23.20	
  6.792	 55.409	 29.88368	 18.79122	 11.79760	 20.28629	 10.57423	 -0.02935	 30.19001	704.82202	 23.20	
  6.787	 69.246	 29.93533	 17.48854	 13.17224	 21.08547	  9.98061	 -0.04795	 30.23769	704.89502	 23.20	
  6.800	 83.015	 29.90449	 15.94455	 14.56856	 21.45827	  9.69556	 -0.05714	 30.21944	704.86401	 23.20	
  6.800	 96.985	 29.87103	 14.43192	 15.96721	 21.45235	  9.67774	 -0.06305	 30.19628	704.78400	 23.20	
  6.787	110.754	 29.84465	 12.96823	 17.54496	 21.05403	  9.98970	 -0.06319	 30.18570	704.92603	 23.20	
  6.792	124.591	 29.85973	 11.52324	 18.85428	 20.30482	 10.59390	 -0.05144	 30.22274	704.89398	 23.20	
  6.795	138.383	 29.86499	 10.37496	 20.01524	 19.18925	 11.40491	 -0.03362	 30.25557	704.77698	 23.20	
  6.808	152.311	 29.80896	  9.61749	 20.93289	 17.84082	 12.80314	 -0.03719	 30.22386	704.86902	 23.20	
  6.796	166.229	 29.77500	  9.11385	 21.48754	 16.39963	 14.17252	 -0.04067	 30.21868	704.93701	 23.20	
  8.491	168.704	 29.40079	  7.34259	 22.77944	 16.07991	 13.75398	 -0.24470	 30.23895	704.84698	 23.20	
  8.502	157.493	 29.42593	  7.74381	 22.31843	 17.53060	 12.08380	 -0.25287	 30.23450	704.87201	 23.20	
  8.494	146.194	 29.40449	  8.38667	 21.52383	 18.93232	 10.85546	 -0.24357	 30.17806	704.78802	 23.20	
  8.495	135.039	 29.47596	  9.27157	 20.55234	 20.26073	  9.83880	 -0.28219	 30.21630	704.75702	 23.20	
  8.487	123.723	 29.50829	 10.32514	 19.26132	 21.33567	  9.01376	 -0.28891	 30.22855	704.94598	 23.20	
  8.492	112.575	 29.54284	 11.66884	 17.96740	 22.09894	  8.44569	 -0.29952	 30.23835	704.87799	 23.20	
  8.510	101.220	 29.58205	 13.31091	 16.50601	 22.60548	  8.09409	 -0.31295	 30.24969	704.93103	 23.20	
  8.500	 90.000	 29.57313	 14.84476	 14.96422	 22.73012	  7.97937	 -0.29965	 30.23276	704.82397	 23.20	
  8.510	 78.780	 29.60044	 16.35389	 13.46446	 22.59235	  8.08877	 -0.27942	 30.24477	704.87701	 23.20	
  8.492	 67.425	 29.57143	 17.91244	 11.97480	 22.08233	  8.45219	 -0.24033	 30.21003	704.96503	 23.20	
  8.487	 56.277	 29.58647	 19.25716	 10.59548	 21.34533	  9.05501	 -0.22710	 30.23093	704.79700	 23.20	
  8.495	 44.961	 29.55456	 20.39654	  9.44767	 20.28249	  9.90018	 -0.23428	 30.21591	704.96002	 23.20	
  8.494	 33.806	 29.53337	 21.39697	  8.63395	 19.00638	 10.89230	 -0.26914	 30.20052	704.93402	 23.20	
  8.502	 22.507	 29.51134	 22.13436	  8.02258	 17.60669	 12.24228	 -0.29987	 30.19579	704.98199	 23.20	
  8.491	 11.296	 29.49428	 22.55491	  7.68937	 16.13980	 13.76056	 -0.31904	 30.20404	704.85303	 23.20	
  8.500	  0.000	 29.46338	 22.69441	  7.56368	 14.66019	 15.27553	 -0.32389	 30.19510	704.88000	 23.20	
  8.491	-11.296	 29.45719	 22.53934	  7.69422	 13.13958	 16.92468	 -0.31699	 30.22630	704.76599	 23.20	
  8.502	-22.507	 29.42760	 22.06251	  8.04644	 11.62425	 18.38872	 -0.33936	 30.22345	704.74902	 23.10	
  8.494	-33.806	 29.39609	 21.25569	  8.66241	 10.23760	 19.73757	 -0.36734	 30.21349	704.83502	 23.20	
  8.495	-44.961	 29.38844	 20.21213	  9.44897	  9.14304	 20.90723	 -0.39549	 30.24755	704.83899	 23.10	
  8.487	-56.277	 29.34230	 19.02329	 10.48932	  8.30761	 21.88350	 -0.42535	 30.22018	704.78198	 23.10	
  8.492	-67.425	 29.30508	 17.64896	 11.89495	  7.71024	 22.58245	 -0.44402	 30.20574	704.88702	 23.10	
  8.510	-78.780	 29.28573	 16.07701	 13.38906	  7.35677	 23.04016	 -0.45696	 30.21863	704.94000	 23.10	
  8.500	-90.000	 29.27203	 14.56963	 14.89101	  7.28328	 23.17484	 -0.46628	 30.23364	704.84399	 23.10	
  8.510	-101.220	 29.22908	 12.99373	 16.30700	  7.37629	 22.99292	 -0.42113	 30.20109	704.88000	 23.10	
  8.492	-112.575	 29.22790	 11.31113	 17.76280	  7.73142	 22.51310	 -0.37012	 30.20468	704.75098	 23.10	
  8.487	-123.723	 29.24417	 10.10948	 19.17801	  8.31423	 21.79172	 -0.32224	 30.23135	704.75098	 23.10	
  8.495	-135.039	 29.26290	  9.09736	 20.51924	  9.10822	 20.77353	 -0.29646	 30.23670	704.81097	 23.10	
  8.494	-146.194	 29.24619	  8.25177	 21.52716	 10.16818	 19.63483	 -0.28014	 30.20812	704.97699	 23.10	
  8.502	-157.493	 29.28419	  7.62465	 22.29757	 11.56077	 18.29423	 -0.27131	 30.22596	704.82397	 23.10	
  8.491	-168.704	 29.36088	  7.30508	 22.79347	 13.05749	 16.85587	 -0.27089	 30.25992	704.84399	 23.10	
  8.500	180.000	 29.34064	  7.16089	 22.92575	 14.56408	 15.24083	 -0.27680	 30.22061	704.94800	 23.10	
 10.200	180.000	 28.83654	  5.33811	 24.12528	 14.08705	 14.73926	 -0.51740	 30.22607	704.83502	 23.10	
 10.191	-170.497	 28.79827	  5.43790	 23.97701	 12.52899	 16.26684	 -0.53131	 30.22373	704.83197	 23.10	
 10.210	-161.034	 28.71486	  5.70842	 23.55072	 10.96344	 17.82818	 -0.51932	 30.17178	704.89203	 23.10	
 10.194	-151.526	 28.76363	  6.23944	 22.92950	  9.60028	 19.31589	 -0.51440	 30.25344	704.84198	 23.10	
 10.190	-142.105	 28.68562	  6.92969	 21.96960	  8.44065	 20.55709	 -0.50413	 30.19708	704.87500	 23.10	
 10.215	-132.646	 28.67414	  7.81774	 20.88264	  7.48842	 21.69605	 -0.53563	 30.21475	704.93103	 23.10	
 10.203	-123.092	 28.64492	  8.90435	 19.51713	  6.64638	 22.68012	 -0.56605	 30.18277	704.93103	 23.10	
 10.192	-113.678	 28.66272	 10.10979	 18.08536	  6.05362	 23.46488	 -0.61594	 30.20903	704.86102	 23.10	
 10.208	-104.249	 28.67397	 11.44358	 16.61575	  5.63841	 24.04874	 -0.68013	 30.20763	704.93103	 23.10	
 10.210	-94.801	 28.68082	 13.16728	 15.17771	  5.42735	 24.34456	 -0.72783	 30.21455	704.97400	 23.10	
 10.210	-85.199	 28.71731	 14.82784	 13.62028	  5.41498	 24.38133	 -0.74233	 30.23269	704.86700	 23.10	
 10.208	-75.751	 28.73144	 16.34333	 12.04001	  5.60030	 24.11557	 -0.75179	 30.21272	704.84998	 23.10	
 10.192	-66.322	 28.78235	 17.92680	 10.57285	  6.04084	 23.58704	 -0.73619	 30.21386	704.83197	 23.10	
 10.203	-56.908	 28.76960	 19.29092	  9.33841	  6.62325	 22.79815	 -0.69738	 30.18192	704.78198	 23.10	
 10.215	-47.354	 28.83624	 20.56848	  8.26331	  7.43908	 21.87160	 -0.65848	 30.21521	704.88300	 23.10	
 10.190	-37.895	 28.88045	 21.71968	  7.37383	  8.46285	 20.65092	 -0.61940	 30.21860	704.75403	 23.10	
 10.194	-28.474	 28.88875	 22.61789	  6.68215	  9.62748	 19.41892	 -0.57321	 30.20107	704.73700	 23.10	
 10.210	-18.966	 28.95313	 23.34020	  6.16727	 11.06432	 18.00521	 -0.56422	 30.23429	704.77301	 23.10	
 10.191	 -9.503	 28.95605	 23.75020	  5.87642	 12.58736	 16.40473	 -0.54270	 30.20149	704.94000	 23.10	
 10.200	  0.000	 29.00101	 23.93555	  5.77767	 14.15845	 14.84158	 -0.55841	 30.20901	704.82397	 23.10	
 10.191	  9.503	 29.05817	 23.83798	  5.88534	 15.71870	 13.21534	 -0.56424	 30.25270	704.78198	 23.10	
 10.210	 18.966	 29.02021	 23.42015	  6.16815	 17.17120	 11.62530	 -0.55706	 30.19604	704.83002	 23.10	
 10.194	 28.474	 29.05951	 22.77274	  6.67775	 18.66328	 10.35965	 -0.52249	 30.20661	704.79602	 23.10	
 10.190	 37.895	 29.08610	 21.94040	  7.38812	 20.05141	  9.20485	 -0.48267	 30.21622	704.73401	 23.10	
 10.215	 47.354	 29.08054	 20.84223	  8.26891	 21.28605	  8.16610	 -0.45628	 30.21427	704.82202	 23.10	
 10.203	 56.908	 29.12827	 19.63724	  9.33451	 22.31522	  7.37382	 -0.43865	 30.23612	704.67297	 23.10	
 10.192	 66.322	 29.12701	 18.27826	 10.63904	 23.10121	  6.74904	 -0.46648	 30.23070	704.65503	 23.10	
 10.208	 75.751	 29.11173	 16.70086	 12.12424	 23.66509	  6.29134	 -0.50694	 30.21600	704.67200	 23.10	
 10.210	 85.199	 29.12712	 15.21687	 13.68984	 23.95598	  6.12199	 -0.55595	 30.22738	704.67499	 23.10	
 10.210	 94.801	 29.12097	 13.62061	 15.23321	 23.95875	  6.12380	 -0.58541	 30.24280	704.76599	 23.10	
 10.208	104.249	 29.09379	 11.90603	 16.73851	 23.67668	  6.30913	 -0.58797	 30.23348	704.64398	 23.10	
 10.192	113.678	 29.06713	 10.47820	 18.22766	 23.10037	  6.73523	 -0.56341	 30.22659	704.78497	 23.10	
 10.203	123.092	 29.04653	  9.25905	 19.58005	 22.31849	  7.33234	 -0.53769	 30.23243	704.71100	 23.00	
 10.215	132.646	 28.99534	  8.10581	 20.92106	 21.27560	  8.16676	 -0.50030	 30.21632	704.76599	 23.10	
 10.190	142.105	 28.92694	  7.14089	 21.97603	 19.99155	  9.15233	 -0.47530	 30.16826	704.82703	 23.10	
 10.194	151.526	 28.93684	  6.39190	 22.91007	 18.62230	 10.28736	 -0.46476	 30.21632	704.69800	 23.00	
 10.210	161.034	 28.91686	  5.84633	 23.60331	 17.12864	 11.54316	 -0.46344	 30.22586	704.67499	 23.00	
 10.191	170.497	 28.88386	  5.50852	 23.98901	 15.64490	 13.18057	 -0.48419	 30.22478	704.86902	 23.00	
 11.899	171.783	 28.24361	  3.64792	 25.10515	 15.11893	 12.39216	 -0.72157	 30.21754	704.82202	 23.00	
 11.890	163.610	 28.28952	  3.95928	 24.75730	 16.62618	 11.01153	 -0.70044	 30.21585	704.72900	 23.00	
 11.889	155.445	 28.31757	  4.42809	 24.17256	 18.15910	  9.71254	 -0.69302	 30.21689	704.87701	 23.00	
 11.909	147.299	 28.32802	  5.05499	 23.37644	 19.62554	  8.47658	 -0.68914	 30.19773	704.82898	 23.00	
 11.902	139.148	 28.38820	  5.88759	 22.40097	 20.99154	  7.39927	 -0.70082	 30.23204	704.76001	 23.00	
 11.894	130.867	 28.41689	  6.90187	 21.19765	 22.17255	  6.42271	 -0.72609	 30.21498	706.41498	 23.00	
 11.897	122.732	 28.43713	  8.03851	 19.86353	 23.16898	  5.60724	 -0.77032	 30.20351	706.24500	 23.00	
 11.903	114.597	 28.47977	  9.30838	 18.48050	 23.99752	  4.97692	 -0.82954	 30.21983	704.72601	 23.00	
 11.893	106.346	 28.50068	 10.62978	 16.97169	 24.58894	  4.54877	 -0.85777	 30.20718	704.65802	 23.00	
 11.892	 98.155	 28.51284	 12.12673	 15.43189	 24.94577	  4.30874	 -0.86386	 30.19863	704.80701	 23.00	
 11.900	 90.000	 28.53773	 13.84416	 13.92826	 25.06498	  4.19285	 -0.83956	 30.21165	704.77399	 23.00	
 11.892	 81.845	 28.57264	 15.46437	 12.37699	 24.95691	  4.28986	 -0.77398	 30.22810	704.88000	 23.00	
 11.893	 73.654	 28.56140	 16.96700	 10.76819	 24.57681	  4.57993	 -0.69432	 30.21132	704.84399	 23.00	
 11.903	 65.403	 28.54766	 18.54962	  9.36470	 23.96667	  5.05311	 -0.65745	 30.20033	704.86902	 23.00	
 11.897	 57.268	 28.56347	 19.86365	  8.21546	 23.16659	  5.69340	 -0.64928	 30.22566	704.73499	 23.00	
 11.894	 49.133	 28.53168	 21.16288	  7.13262	 22.13830	  6.50846	 -0.66047	 30.20654	704.78497	 23.00	
 11.902	 40.852	 28.52363	 22.32553	  6.15996	 20.95556	  7.47538	 -0.70557	 30.20942	704.88702	 23.00	
 11.909	 32.701	 28.47803	 23.27075	  5.34167	 19.62864	  8.55226	 -0.75499	 30.20160	704.90900	 23.00	
 11.889	 24.555	 28.46606	 24.05191	  4.75489	 18.17456	  9.80727	 -0.78640	 30.20603	704.78400	 23.00	
 11.890	 16.390	 28.45374	 24.60736	  4.33533	 16.65763	 11.11354	 -0.80740	 30.21116	704.73700	 23.00	
 11.899	  8.217	 28.43578	 24.95716	  4.08916	 15.18434	 12.55578	 -0.79155	 30.21860	704.82202	 23.00	
 11.900	  0.000	 28.38333	 25.03187	  3.98471	 13.62453	 14.23259	 -0.77781	 30.18439	704.79303	 23.00	
 11.899	 -8.217	 28.40309	 24.93187	  4.06948	 12.03533	 15.86269	 -0.77621	 30.24416	704.84698	 23.00	
 11.890	-16.390	 28.34285	 24.50869	  4.32256	 10.48459	 17.46209	 -0.80060	 30.20643	705.24103	 23.00	
 11.889	-24.555	 28.30910	 23.90144	  4.74470	  9.08691	 18.94232	 -0.82085	 30.20563	704.87000	 23.00	
 11.909	-32.701	 28.27836	 23.09211	  5.29490	  7.85909	 20.28627	 -0.82498	 30.22128	704.79303	 23.00	
 11.902	-40.852	 28.27464	 22.08962	  6.07752	  6.77721	 21.55053	 -0.82713	 30.23715	704.80103	 23.00	
 11.894	-49.133	 28.19739	 20.82626	  7.04420	  5.77496	 22.66376	 -0.87348	 30.19377	704.85199	 23.00	
 11.897	-57.268	 28.17654	 19.55751	  8.14840	  4.99198	 23.65991	 -0.91439	 30.20176	704.95398	 23.00	
 11.903	-65.403	 28.14569	 18.18507	  9.33555	  4.37334	 24.44645	 -0.96341	 30.20708	704.95398	 23.00	
 11.893	-73.654	 28.11203	 16.57113	 10.67781	  3.96938	 24.99149	 -0.97825	 30.19858	704.93103	 23.00	
 11.892	-81.845	 28.07590	 15.01958	 12.23268	  3.71553	 25.30978	 -1.00553	 30.19295	705.03198	 23.00	
 11.900	-90.000	 28.09379	 13.42376	 13.86947	  3.64037	 25.44919	 -0.99163	 30.23752	704.90601	 23.00	
 11.892	-98.155	 28.06036	 11.68812	 15.41090	  3.76219	 25.29848	 -0.94432	 30.21646	704.99799	 23.00	
 11.893	-106.346	 28.07728	 10.26474	 16.86269	  3.99455	 24.95653	 -0.88663	 30.26275	704.96002	 23.00	
 11.903	-114.597	 28.03995	  8.93173	 18.34759	  4.38939	 24.35368	 -0.82920	 30.24466	704.84601	 23.00	
 11.897	-122.732	 27.99936	  7.69254	 19.77255	  4.99704	 23.50140	 -0.75851	 30.20185	704.96002	 23.00	
 11.894	-130.867	 28.03438	  6.61046	 21.12312	  5.80669	 22.53678	 -0.73089	 30.21462	704.95599	 23.00	
 11.902	-139.148	 28.01482	  5.62948	 22.31173	  6.73445	 21.33428	 -0.73696	 30.18346	704.91498	 23.00	
 11.909	-147.299	 28.06969	  4.86213	 23.33862	  7.82413	 20.18557	 -0.73418	 30.21746	704.81097	 23.00	
 11.889	-155.445	 28.11700	  4.27947	 24.15231	  9.04316	 18.81725	 -0.75225	 30.23626	704.87000	 23.00	
 11.890	-163.610	 28.11915	  3.85474	 24.71797	 10.41253	 17.28969	 -0.78278	 30.19533	704.82898	 23.00	
 11.899	-171.783	 28.16196	  3.56080	 25.09657	 11.94188	 15.68785	 -0.78816	 30.21396	704.85999	 23.00	
 11.900	180.000	 28.18833	  3.49628	 25.21324	 13.56244	 14.10340	 -0.74972	 30.19765	704.92902	 23.00	
 13.600	180.000	 27.46620	  1.65464	 26.23009	 12.83695	 13.28923	 -0.99231	 30.22138	704.96002	 23.00	
 13.608	-172.853	 27.39540	  1.70630	 26.12023	 11.26821	 14.95420	 -1.00707	 30.20351	704.94000	 23.00	
 13.611	-165.583	 27.36360	  1.90449	 25.79298	  9.80118	 16.57397	 -1.02370	 30.18657	704.84601	 23.00	
 13.601	-158.353	 27.36270	  2.25424	 25.27262	  8.43438	 18.19142	 -1.00433	 30.21551	704.73499	 23.00	
 13.609	-151.210	 27.31697	  2.74237	 24.54336	  7.17555	 19.62387	 -0.97750	 30.20249	704.86700	 23.00	
 13.611	-143.999	 27.26263	  3.41178	 23.61699	  6.00056	 20.83898	 -0.95549	 30.17308	704.81897	 23.00	
 13.601	-136.825	 27.26740	  4.28354	 22.54400	  4.94920	 22.12968	 -0.93401	 30.20211	704.82703	 23.00	
 13.596	-129.640	 27.27339	  5.28924	 21.32817	  4.06107	 23.29855	 -0.91955	 30.23641	704.72601	 23.00	
