FileType=PCF
NHL=14
Date=08/25/17	18:31:52
Facility=APL
Serial=16328-7
Customer=NASA
NP=6
Mach=0.200000
Calibration=1:1
CalPts=490
TstPts=95
PortNumbering=AP Standard
Units=Torr C m/s kg/m^3 deg mm 
Theta[deg]	Phi[deg]	P1[Torr]	P2[Torr]	P3[Torr]	P4[Torr]	P5[Torr]	P6[Torr]	Pt[Torr]	Ps[Abs,Torr]	Ts[C]	
  0.000	  0.000	 19.48420	 10.48531	 10.50837	 10.21336	 10.71941	  0.15773	 19.45714	708.50598	 25.30	
  1.691	128.401	 19.45487	  9.86843	 11.05704	 10.93630	  9.92415	  0.15920	 19.42827	708.53900	 25.30	
  1.692	 77.194	 19.48608	 10.68609	 10.26503	 11.18176	  9.74901	  0.15455	 19.45929	708.62097	 25.30	
  1.699	 26.182	 19.48685	 11.32822	  9.59603	 10.65888	 10.25116	  0.14793	 19.45655	708.60999	 25.30	
  1.699	-26.182	 19.47741	 11.30066	  9.60332	  9.76210	 11.11495	  0.14591	 19.44683	708.48901	 25.30	
  1.692	-77.194	 19.50586	 10.66768	 10.28354	  9.23906	 11.65922	  0.13616	 19.48751	708.47400	 25.30	
  1.691	-128.401	 19.45957	  9.82914	 11.08498	  9.37920	 11.45175	  0.14429	 19.45144	708.46600	 25.30	
  1.700	180.000	 19.48139	  9.54329	 11.46607	 10.14814	 10.70553	  0.15553	 19.45727	708.45099	 25.30	
  3.400	180.000	 19.43120	  8.59199	 12.39881	 10.02903	 10.60816	  0.11933	 19.44670	708.58197	 25.30	
  3.388	-152.325	 19.41719	  8.76346	 12.16799	  9.14410	 11.50833	  0.10932	 19.45268	708.51300	 25.30	
  3.397	-124.529	 19.44959	  9.30775	 11.54150	  8.49970	 12.25376	  0.08613	 19.47939	708.62903	 25.30	
  3.399	-96.763	 19.41517	 10.09047	 10.62030	  8.18024	 12.56730	  0.07014	 19.44977	708.55103	 25.20	
  3.394	-69.283	 19.42452	 11.00105	  9.70541	  8.31594	 12.45337	  0.07842	 19.44687	708.46899	 25.30	
  3.400	-41.398	 19.46573	 11.80456	  8.97743	  8.87540	 11.91256	  0.08940	 19.47490	708.56097	 25.30	
  3.401	-14.021	 19.44924	 12.25735	  8.55762	  9.66315	 11.07594	  0.09943	 19.44946	708.57202	 25.30	
  3.401	 14.021	 19.46073	 12.27605	  8.54242	 10.62795	 10.12765	  0.10601	 19.44910	708.42603	 25.30	
  3.400	 41.398	 19.46582	 11.84311	  8.95600	 11.47657	  9.33788	  0.11224	 19.45881	708.49902	 25.30	
  3.394	 69.283	 19.47925	 11.09666	  9.70718	 12.01975	  8.84580	  0.11068	 19.47342	708.43500	 25.30	
  3.399	 96.763	 19.45897	 10.18393	 10.61100	 12.10527	  8.73592	  0.11929	 19.45250	708.53900	 25.30	
  3.397	124.529	 19.47650	  9.41117	 11.52644	 11.75349	  9.06447	  0.11894	 19.48271	708.49902	 25.30	
  3.388	152.325	 19.45138	  8.83246	 12.15982	 10.98275	  9.72670	  0.12237	 19.46816	708.47699	 25.30	
  5.099	161.165	 19.35216	  7.74982	 13.15186	 10.87661	  9.51155	  0.05928	 19.47636	708.42297	 25.30	
  5.109	142.013	 19.34984	  8.17095	 12.65276	 11.78249	  8.69858	  0.01743	 19.45855	708.69299	 25.30	
  5.095	123.033	 19.38267	  8.84372	 11.90991	 12.49571	  8.11695	  0.04780	 19.47199	708.56403	 25.30	
  5.105	104.191	 19.39068	  9.65502	 10.98859	 12.95488	  7.75400	  0.04903	 19.47203	708.66901	 25.30	
  5.093	 85.207	 19.39269	 10.53348	  9.99927	 13.03306	  7.69107	  0.00852	 19.45359	708.59497	 25.30	
  5.104	 66.290	 19.41506	 11.48185	  9.07385	 12.82004	  7.90979	  0.04380	 19.48473	708.63800	 25.30	
  5.094	 47.331	 19.37315	 12.25023	  8.31953	 12.25688	  8.36450	  0.00795	 19.43668	708.58197	 25.30	
  5.089	 28.397	 19.38296	 12.87222	  7.75954	 11.47166	  9.09360	  0.00170	 19.44532	708.58197	 25.30	
  5.096	  9.576	 19.38274	 13.19719	  7.45773	 10.54282	  9.96146	  0.00311	 19.45967	708.63098	 25.30	
  5.096	 -9.576	 19.36756	 13.19022	  7.46768	  9.52490	 10.95028	  0.01871	 19.45725	708.51300	 25.30	
  5.089	-28.397	 19.36790	 12.82981	  7.77790	  8.64337	 11.87525	 -0.03166	 19.46968	708.60699	 25.30	
  5.094	-47.331	 19.32036	 12.17181	  8.31320	  7.87591	 12.65504	 -0.05119	 19.43546	708.59497	 25.30	
  5.104	-66.290	 19.30510	 11.31087	  9.09161	  7.33592	 13.23301	 -0.06746	 19.44502	708.73901	 25.30	
  5.093	-85.207	 19.31860	 10.40236	  9.99887	  7.08836	 13.50147	 -0.06034	 19.47098	708.53601	 25.30	
  5.105	-104.191	 19.29259	  9.47952	 10.97768	  7.12180	 13.41766	 -0.05876	 19.45947	708.59198	 25.30	
  5.095	-123.033	 19.28187	  8.71131	 11.88062	  7.49003	 12.98890	 -0.03913	 19.44636	708.56201	 25.30	
  5.109	-142.013	 19.25841	  8.07277	 12.63492	  8.07340	 12.27638	 -0.00967	 19.42895	708.62402	 25.30	
  5.099	-161.165	 19.29811	  7.69783	 13.13142	  8.91799	 11.41447	 -0.00139	 19.45758	708.61298	 25.30	
  5.100	180.000	 19.28040	  7.55145	 13.28631	  9.83365	 10.43738	  0.04994	 19.42416	708.54797	 25.30	
  6.800	180.000	 19.10910	  6.47445	 14.17178	  9.60300	 10.22657	 -0.04172	 19.45194	708.57001	 25.30	
  6.796	-166.229	 19.09025	  6.53462	 14.04929	  8.68148	 11.15802	 -0.10846	 19.44882	708.66199	 25.30	
  6.808	-152.311	 19.09553	  6.82886	 13.69368	  7.81828	 12.09578	 -0.12149	 19.46021	708.56201	 25.30	
  6.795	-138.383	 19.08132	  7.28791	 13.10379	  7.07029	 12.92444	 -0.12701	 19.45163	708.68201	 25.30	
  6.792	-124.591	 19.05081	  7.89947	 12.32706	  6.48527	 13.59609	 -0.16302	 19.43024	708.75500	 25.30	
  6.787	-110.754	 19.07169	  8.65825	 11.46342	  6.12116	 14.07604	 -0.18689	 19.44162	708.63702	 25.30	
  6.800	-96.985	 19.11389	  9.46902	 10.54217	  5.95069	 14.34600	 -0.21089	 19.48338	708.76599	 25.30	
  6.800	-83.015	 19.09862	 10.37342	  9.56749	  5.96982	 14.33198	 -0.20621	 19.45524	708.76202	 25.30	
  6.787	-69.246	 19.11452	 11.32497	  8.67152	  6.20018	 14.08509	 -0.22302	 19.45439	708.72400	 25.30	
  6.792	-55.409	 19.12475	 12.20137	  7.86259	  6.61748	 13.61518	 -0.20525	 19.44000	708.70300	 25.30	
  6.795	-41.617	 19.14603	 12.96782	  7.19834	  7.22734	 12.95075	 -0.17487	 19.43990	708.67200	 25.30	
  6.808	-27.689	 19.18934	 13.58028	  6.71125	  8.01399	 12.13340	 -0.16593	 19.46136	708.68799	 25.30	
  6.796	-13.771	 19.21821	 13.96859	  6.40529	  8.90227	 11.22484	 -0.13451	 19.46992	708.78101	 25.30	
  6.800	  0.000	 19.21509	 14.09676	  6.29683	  9.83515	 10.26931	 -0.12276	 19.45781	708.77301	 25.30	
  6.796	 13.771	 19.22071	 14.00001	  6.38822	 10.80803	  9.33585	 -0.11712	 19.45274	708.73102	 25.30	
  6.808	 27.689	 19.23168	 13.65613	  6.69566	 11.73973	  8.47823	 -0.11777	 19.45239	708.73901	 25.20	
  6.795	 41.617	 19.23107	 13.08239	  7.19450	 12.55009	  7.75598	 -0.11352	 19.44562	708.51599	 25.30	
  6.792	 55.409	 19.22934	 12.34060	  7.84929	 13.21698	  7.17523	 -0.10755	 19.43789	708.63098	 25.30	
  6.787	 69.246	 19.24123	 11.47449	  8.66786	 13.68640	  6.78444	 -0.10815	 19.44944	708.67999	 25.30	
  6.800	 83.015	 19.24982	 10.57738	  9.56107	 13.92420	  6.56651	 -0.12127	 19.45997	708.76202	 25.30	
  6.800	 96.985	 19.22468	  9.67791	 10.52801	 13.88975	  6.58114	 -0.13190	 19.44665	708.70801	 25.30	
  6.787	110.754	 19.23319	  8.86449	 11.47176	 13.64062	  6.78931	 -0.12298	 19.46662	708.63800	 25.30	
  6.792	124.591	 19.20812	  8.08087	 12.35346	 13.12767	  7.18359	 -0.09630	 19.46496	708.80298	 25.30	
  6.795	138.383	 19.14834	  7.42222	 13.07234	 12.40093	  7.72758	 -0.10230	 19.42537	708.64899	 25.30	
  6.808	152.311	 19.17974	  6.92628	 13.70051	 11.58203	  8.47037	 -0.07155	 19.48193	708.73602	 25.30	
  6.796	166.229	 19.14314	  6.60539	 14.05589	 10.61585	  9.30742	 -0.08369	 19.45989	708.75201	 25.30	
  8.491	168.704	 18.87463	  5.42432	 14.87694	 10.34972	  9.01071	 -0.22200	 19.46706	708.65802	 25.30	
  8.502	157.493	 18.87704	  5.68592	 14.56567	 11.32792	  8.11838	 -0.23217	 19.44669	708.69702	 25.30	
  8.494	146.194	 18.90911	  6.11166	 14.07357	 12.26599	  7.33290	 -0.24140	 19.45307	708.69299	 25.30	
  8.495	135.039	 18.91621	  6.66211	 13.40958	 13.09342	  6.65356	 -0.23849	 19.43328	708.75000	 25.30	
  8.487	123.723	 18.93071	  7.36537	 12.59623	 13.78524	  6.10250	 -0.26543	 19.42740	708.76703	 25.30	
  8.492	112.575	 18.96919	  8.14993	 11.71534	 14.30795	  5.70965	 -0.28499	 19.43450	708.78998	 25.30	
  8.510	101.220	 19.00925	  9.03401	 10.76378	 14.66084	  5.47177	 -0.29292	 19.46374	708.68799	 25.30	
  8.500	 90.000	 19.01344	  9.89015	  9.78914	 14.75284	  5.42005	 -0.28283	 19.45321	708.71600	 25.30	
  8.510	 78.780	 19.04794	 10.83328	  8.84004	 14.69757	  5.49643	 -0.27225	 19.47693	708.75598	 25.30	
  8.492	 67.425	 19.01226	 11.75253	  7.92748	 14.37501	  5.75013	 -0.26034	 19.43784	708.78400	 25.30	
  8.487	 56.277	 19.01274	 12.62823	  7.13423	 13.90199	  6.14631	 -0.25219	 19.44630	708.72699	 25.30	
  8.495	 44.961	 19.00997	 13.42023	  6.42745	 13.25506	  6.69573	 -0.25376	 19.45231	708.68903	 25.30	
  8.494	 33.806	 19.00890	 14.06005	  5.88491	 12.46338	  7.38348	 -0.27204	 19.45198	708.77502	 25.30	
  8.502	 22.507	 19.00270	 14.54461	  5.46827	 11.57082	  8.18510	 -0.29078	 19.46276	708.67102	 25.30	
  8.491	 11.296	 18.99183	 14.82338	  5.22894	 10.61359	  9.07462	 -0.27871	 19.45770	708.85400	 25.30	
  8.500	  0.000	 18.98605	 14.91588	  5.14541	  9.61113	 10.04794	 -0.28719	 19.46063	708.75500	 25.30	
  8.491	-11.296	 18.96194	 14.77662	  5.24073	  8.63019	 11.01166	 -0.30049	 19.44762	708.81500	 25.30	
  8.502	-22.507	 18.95179	 14.47575	  5.48249	  7.72233	 11.95658	 -0.31683	 19.46012	708.65100	 25.30	
  8.494	-33.806	 18.92883	 13.96476	  5.89972	  6.88739	 12.85156	 -0.33160	 19.45367	708.78699	 25.30	
  8.495	-44.961	 18.87842	 13.28363	  6.43395	  6.15913	 13.62287	 -0.35720	 19.43237	708.88501	 25.30	
  8.487	-56.277	 18.87056	 12.48197	  7.14323	  5.59911	 14.26996	 -0.39076	 19.44337	709.01099	 25.30	
  8.492	-67.425	 18.84827	 11.59598	  7.94340	  5.17386	 14.74471	 -0.41729	 19.44721	708.96997	 25.30	
  8.510	-78.780	 18.79513	 10.60057	  8.82967	  4.87519	 15.03892	 -0.42188	 19.42069	708.97601	 25.30	
  8.500	-90.000	 18.78256	  9.61978	  9.78444	  4.77364	 15.13992	 -0.41806	 19.42319	709.03198	 25.30	
  8.510	-101.220	 18.78444	  8.75959	 10.75537	  4.80803	 15.06244	 -0.39245	 19.43978	708.98602	 25.30	
  8.492	-112.575	 18.78918	  7.92568	 11.72093	  5.03888	 14.75030	 -0.35782	 19.45511	708.87701	 25.30	
  8.487	-123.723	 18.80109	  7.17785	 12.61819	  5.41901	 14.26210	 -0.32955	 19.46347	709.07703	 25.30	
  8.495	-135.039	 18.77902	  6.49790	 13.40512	  5.93885	 13.59401	 -0.29159	 19.44390	708.78699	 25.30	
  8.494	-146.194	 18.76219	  5.97379	 14.04611	  6.61988	 12.77511	 -0.27606	 19.41995	708.71301	 25.30	
  8.502	-157.493	 18.80837	  5.59597	 14.57551	  7.45855	 11.88156	 -0.28238	 19.46749	708.93903	 25.30	
  8.491	-168.704	 18.83692	  5.37796	 14.87949	  8.36416	 10.94376	 -0.27290	 19.47095	708.94098	 25.30	
  8.500	180.000	 18.85392	  5.31212	 14.98547	  9.33021	  9.97497	 -0.19426	 19.47744	708.93799	 25.30	
 10.200	180.000	 18.48399	  4.10811	 15.70013	  9.02107	  9.66986	 -0.39317	 19.43871	708.86798	 25.30	
 10.191	-170.497	 18.47998	  4.14799	 15.63227	  8.04727	 10.64473	 -0.42881	 19.45299	708.76599	 25.30	
 10.210	-161.034	 18.41982	  4.28263	 15.34966	  7.09059	 11.58382	 -0.44111	 19.41969	708.86902	 25.30	
 10.194	-151.526	 18.44189	  4.63116	 14.94581	  6.22933	 12.55179	 -0.44433	 19.45035	708.88000	 25.30	
 10.190	-142.105	 18.46178	  5.10583	 14.38725	  5.47799	 13.43414	 -0.42759	 19.47535	708.85699	 25.30	
 10.215	-132.646	 18.43554	  5.66050	 13.67152	  4.82473	 14.19493	 -0.44486	 19.46338	708.94702	 25.30	
 10.203	-123.092	 18.40021	  6.35064	 12.81031	  4.29653	 14.82371	 -0.49091	 19.42733	709.01801	 25.30	
 10.192	-113.678	 18.41954	  7.14127	 11.91373	  3.92201	 15.34970	 -0.52648	 19.43926	708.88300	 25.30	
 10.208	-104.249	 18.43974	  7.98737	 10.96589	  3.66838	 15.72989	 -0.56903	 19.46080	708.88000	 25.30	
 10.210	-94.801	 18.44936	  8.87381	  9.98608	  3.56273	 15.91332	 -0.60481	 19.45630	708.83801	 25.30	
 10.210	-85.199	 18.44535	  9.81077	  8.98850	  3.59718	 15.90275	 -0.62887	 19.44302	709.01801	 25.30	
 10.208	-75.751	 18.48162	 10.80895	  8.06273	  3.75973	 15.74795	 -0.63364	 19.46750	708.96100	 25.30	
 10.192	-66.322	 18.50099	 11.78214	  7.18511	  4.06299	 15.39539	 -0.62078	 19.44772	708.89398	 25.30	
 10.203	-56.908	 18.51803	 12.68954	  6.37194	  4.49433	 14.89611	 -0.58901	 19.44271	708.88000	 25.30	
 10.215	-47.354	 18.57300	 13.54825	  5.65870	  5.06472	 14.26733	 -0.54836	 19.46417	708.87402	 25.30	
 10.190	-37.895	 18.58663	 14.24865	  5.07105	  5.73961	 13.49643	 -0.50903	 19.44873	709.02802	 25.30	
 10.194	-28.474	 18.64070	 14.86018	  4.60815	  6.52604	 12.66041	 -0.48635	 19.47772	708.96997	 25.30	
 10.210	-18.966	 18.65092	 15.31011	  4.23873	  7.39577	 11.71196	 -0.47803	 19.47482	709.06299	 25.30	
 10.191	 -9.503	 18.64585	 15.55518	  4.04308	  8.33275	 10.73161	 -0.45101	 19.44611	708.83502	 25.30	
 10.200	  0.000	 18.66885	 15.66845	  3.96230	  9.31779	  9.75114	 -0.45291	 19.45072	709.00598	 25.30	
 10.191	  9.503	 18.67938	 15.60226	  4.02583	 10.33696	  8.78448	 -0.45432	 19.46256	709.14203	 25.30	
 10.210	 18.966	 18.70392	 15.38969	  4.21524	 11.33085	  7.87932	 -0.47520	 19.47455	708.95203	 25.30	
 10.194	 28.474	 18.70764	 14.96349	  4.57055	 12.26783	  7.02908	 -0.46219	 19.47106	708.89899	 25.30	
 10.190	 37.895	 18.70930	 14.39376	  5.04048	 13.14094	  6.25656	 -0.44149	 19.46098	708.93103	 25.30	
 10.215	 47.354	 18.72690	 13.70474	  5.62565	 13.91681	  5.59766	 -0.40658	 19.47014	708.86798	 25.30	
 10.203	 56.908	 18.72532	 12.88531	  6.34178	 14.54838	  5.07215	 -0.41168	 19.45554	708.89301	 25.30	
 10.192	 66.322	 18.72695	 11.97926	  7.15685	 15.02702	  4.67728	 -0.41973	 19.44887	709.02502	 25.30	
 10.208	 75.751	 18.73891	 11.04289	  8.03403	 15.38402	  4.38550	 -0.44714	 19.46941	708.96698	 25.30	
 10.210	 85.199	 18.73498	 10.08654	  8.98013	 15.53932	  4.25704	 -0.46767	 19.46594	708.98401	 25.30	
 10.210	 94.801	 18.71086	  9.19155	  9.97340	 15.50754	  4.24503	 -0.48987	 19.45198	708.99500	 25.30	
 10.208	104.249	 18.68854	  8.28110	 10.95866	 15.32023	  4.36669	 -0.48604	 19.45283	708.98401	 25.30	
 10.192	113.678	 18.67846	  7.42370	 11.92285	 14.95254	  4.65643	 -0.47907	 19.46076	708.94397	 25.30	
 10.203	123.092	 18.65937	  6.61373	 12.83288	 14.44011	  5.04311	 -0.44890	 19.46859	708.89697	 25.30	
 10.215	132.646	 18.60938	  5.86565	 13.66082	 13.75130	  5.54626	 -0.42454	 19.44827	708.86499	 25.30	
 10.190	142.105	 18.58902	  5.26949	 14.36652	 12.93969	  6.19662	 -0.40788	 19.45779	708.86200	 25.30	
 10.194	151.526	 18.54605	  4.78373	 14.92776	 12.02162	  6.94944	 -0.40810	 19.43695	708.91803	 25.30	
 10.210	161.034	 18.55161	  4.40282	 15.37850	 11.07080	  7.81364	 -0.40937	 19.46245	709.07397	 25.30	
 10.191	170.497	 18.50707	  4.20457	 15.60289	 10.05963	  8.71275	 -0.39691	 19.43959	708.95203	 25.30	
 11.899	171.783	 18.11111	  3.01884	 16.33524	  9.72135	  8.34913	 -0.55046	 19.46186	708.85901	 25.30	
 11.890	163.610	 18.13759	  3.19480	 16.10999	 10.73203	  7.44384	 -0.55733	 19.45874	708.98297	 25.30	
 11.889	155.445	 18.14263	  3.47761	 15.72078	 11.71895	  6.58180	 -0.55060	 19.43511	708.93903	 25.30	
 11.909	147.299	 18.16490	  3.85829	 15.22045	 12.66783	  5.77469	 -0.55260	 19.44305	708.90002	 25.30	
 11.902	139.148	 18.21711	  4.36202	 14.59925	 13.55609	  5.08612	 -0.56578	 19.46097	708.96399	 25.30	
 11.894	130.867	 18.25255	  4.98065	 13.84236	 14.32913	  4.49034	 -0.58514	 19.46150	709.08197	 25.30	
 11.897	122.732	 18.26151	  5.77493	 12.99686	 14.98517	  3.95375	 -0.61663	 19.44753	709.06598	 25.30	
 11.903	114.597	 18.26727	  6.57637	 12.07116	 15.51084	  3.53991	 -0.65341	 19.43428	709.06299	 25.30	
 11.893	106.346	 18.29914	  7.47604	 11.09760	 15.91945	  3.24458	 -0.66848	 19.43987	709.10999	 25.30	
 11.892	 98.155	 18.34145	  8.40128	 10.11797	 16.17150	  3.08668	 -0.67562	 19.45790	708.95599	 25.30	
 11.900	 90.000	 18.35891	  9.33261	  9.13470	 16.26475	  3.05452	 -0.66495	 19.46477	708.89697	 25.30	
 11.892	 81.845	 18.36060	 10.20236	  8.16207	 16.19024	  3.13629	 -0.62442	 19.44952	709.08197	 25.30	
 11.893	 73.654	 18.37994	 11.19600	  7.23746	 15.98384	  3.31742	 -0.58449	 19.47523	708.93298	 25.30	
 11.903	 65.403	 18.34671	 12.14513	  6.34337	 15.60080	  3.59893	 -0.55811	 19.44655	708.91602	 25.30	
 11.897	 57.268	 18.37558	 13.07357	  5.55069	 15.12083	  4.01114	 -0.54858	 19.47167	708.93103	 25.30	
 11.894	 49.133	 18.34982	 13.88724	  4.83688	 14.46943	  4.52412	 -0.54938	 19.45596	709.02802	 25.30	
 11.902	 40.852	 18.34750	 14.64256	  4.20909	 13.74238	  5.13947	 -0.58614	 19.47264	708.96698	 25.30	
 11.909	 32.701	 18.30719	 15.23853	  3.68953	 12.88221	  5.84380	 -0.62044	 19.44087	708.90698	 25.30	
 11.889	 24.555	 18.28633	 15.71024	  3.29777	 11.94620	  6.64511	 -0.64872	 19.42197	708.95203	 25.30	
 11.890	 16.390	 18.30504	 16.08694	  3.01163	 11.00424	  7.51341	 -0.64631	 19.45196	708.92999	 25.30	
 11.899	  8.217	 18.27195	 16.27911	  2.84253	 10.00339	  8.41875	 -0.62565	 19.42485	708.91602	 25.30	
 11.900	  0.000	 18.29135	 16.36297	  2.79368	  8.99705	  9.41268	 -0.62199	 19.45317	708.94702	 25.30	
 11.899	 -8.217	 18.29691	 16.28093	  2.86260	  8.01292	 10.40656	 -0.62264	 19.47291	708.98297	 25.30	
 11.890	-16.390	 18.25866	 16.02341	  3.04364	  7.05939	 11.37308	 -0.62775	 19.45233	709.08197	 25.30	
 11.889	-24.555	 18.23221	 15.64217	  3.32588	  6.14985	 12.33228	 -0.63332	 19.44920	708.89697	 25.30	
 11.909	-32.701	 18.19780	 15.12601	  3.71492	  5.32449	 13.23478	 -0.64976	 19.44657	709.04199	 25.30	
 11.902	-40.852	 18.20686	 14.49177	  4.25092	  4.61549	 14.07991	 -0.67185	 19.47701	708.91400	 25.30	
 11.894	-49.133	 18.14743	 13.69438	  4.87308	  3.95724	 14.81033	 -0.71216	 19.44582	708.95502	 25.30	
 11.897	-57.268	 18.11403	 12.84717	  5.57698	  3.41438	 15.44177	 -0.75921	 19.44453	708.85101	 25.30	
 11.903	-65.403	 18.09521	 11.92599	  6.36711	  2.98531	 15.95600	 -0.78100	 19.45965	708.96997	 25.30	
 11.893	-73.654	 18.07077	 10.94382	  7.24955	  2.70270	 16.31111	 -0.78992	 19.46283	709.04901	 25.30	
 11.892	-81.845	 18.03112	  9.94422	  8.16618	  2.51971	 16.50544	 -0.79512	 19.43376	708.96301	 25.30	
 11.900	-90.000	 18.03173	  8.95649	  9.13875	  2.42627	 16.60472	 -0.78484	 19.46433	708.95502	 25.30	
 11.892	-98.155	 18.00007	  8.05013	 10.10763	  2.40671	 16.51272	 -0.77074	 19.44844	708.97998	 25.30	
 11.893	-106.346	 18.02154	  7.15966	 11.11069	  2.54148	 16.31075	 -0.74499	 19.47773	708.97998	 25.30	
 11.903	-114.597	 17.99352	  6.27544	 12.07059	  2.79075	 15.91109	 -0.70064	 19.46076	709.12799	 25.30	
 11.897	-122.732	 18.00131	  5.48640	 12.98377	  3.18566	 15.39374	 -0.65762	 19.46463	709.14899	 25.30	
 11.894	-130.867	 17.98022	  4.77880	 13.79813	  3.70631	 14.72156	 -0.61755	 19.43164	709.11603	 25.30	
 11.902	-139.148	 18.00068	  4.16219	 14.57125	  4.34435	 13.96480	 -0.59598	 19.45033	709.02502	 25.30	
 11.909	-147.299	 18.01400	  3.70136	 15.21842	  5.02606	 13.13908	 -0.61939	 19.46022	709.00299	 25.30	
 11.889	-155.445	 18.00932	  3.33863	 15.70848	  5.82379	 12.21358	 -0.62919	 19.44187	709.00598	 25.30	
 11.890	-163.610	 18.02265	  3.11346	 16.07939	  6.71921	 11.25353	 -0.62615	 19.44146	709.03198	 25.30	
 11.899	-171.783	 18.05807	  2.99050	 16.32518	  7.67287	 10.29516	 -0.60164	 19.46037	709.01202	 25.30	
 11.900	180.000	 18.10410	  2.94958	 16.41791	  8.68429	  9.32988	 -0.58342	 19.48173	709.09698	 25.30	
 13.600	180.000	 17.60232	  1.73194	 17.02680	  8.29333	  8.91262	 -0.73966	 19.46469	709.08502	 25.30	
 13.608	-172.853	 17.55801	  1.75883	 16.94977	  7.28167	  9.85774	 -0.75799	 19.44089	709.14099	 25.30	
 13.611	-165.583	 17.54202	  1.88446	 16.75682	  6.31921	 10.84647	 -0.77813	 19.45058	709.04797	 25.30	
 13.601	-158.353	 17.54310	  2.11628	 16.43950	  5.40169	 11.83708	 -0.78670	 19.47444	709.13501	 25.30	
 13.609	-151.210	 17.54064	  2.43898	 15.98777	  4.58175	 12.77170	 -0.77937	 19.47799	709.10797	 25.30	
 13.611	-143.999	 17.52482	  2.86002	 15.41429	  3.84816	 13.65335	 -0.75214	 19.47940	709.19098	 25.30	
 13.601	-136.825	 17.49605	  3.37719	 14.71178	  3.17629	 14.45375	 -0.73761	 19.44880	709.21802	 25.30	
 13.596	-129.640	 17.49185	  3.97095	 13.93032	  2.60091	 15.19488	 -0.75349	 19.45608	709.27002	 25.30	
