FileType=PCF
NHL=14
Date=08/25/17	17:56:02
Facility=APL
Serial=16328-7
Customer=NASA
NP=6
Mach=0.150000
Calibration=1:1
CalPts=490
TstPts=95
PortNumbering=AP Standard
Units=Torr C m/s kg/m^3 deg mm 
Theta[deg]	Phi[deg]	P1[Torr]	P2[Torr]	P3[Torr]	P4[Torr]	P5[Torr]	P6[Torr]	Pt[Torr]	Ps[Abs,Torr]	Ts[C]	
  0.000	  0.000	 11.07651	  5.94898	  6.01062	  5.81666	  6.14875	  0.07968	 11.06391	707.58502	 24.50	
  1.691	128.401	 11.06581	  5.60504	  6.32077	  6.22685	  5.70160	  0.07764	 11.05522	707.50098	 24.50	
  1.692	 77.194	 11.07611	  6.07135	  5.86616	  6.35517	  5.60089	  0.07446	 11.06436	707.53802	 24.50	
  1.699	 26.182	 11.09201	  6.44692	  5.51270	  6.07513	  5.89602	  0.06963	 11.07647	707.52301	 24.50	
  1.699	-26.182	 11.08565	  6.43470	  5.51554	  5.57917	  6.37913	  0.06602	 11.07363	708.47998	 24.50	
  1.692	-77.194	 11.06923	  6.04758	  5.87555	  5.28219	  6.64992	  0.06153	 11.05813	707.55402	 24.50	
  1.691	-128.401	 11.06181	  5.58648	  6.32389	  5.36223	  6.54638	  0.06733	 11.04967	707.70300	 24.50	
  1.700	180.000	 11.07540	  5.39533	  6.54123	  5.78979	  6.13198	  0.07399	 11.06400	707.75299	 24.50	
  3.400	180.000	 11.05702	  4.83876	  7.06306	  5.73885	  6.06574	  0.05881	 11.06741	707.64697	 24.50	
  3.388	-152.325	 11.04600	  4.94180	  6.92154	  5.24130	  6.56884	  0.03656	 11.06556	707.65503	 24.50	
  3.397	-124.529	 11.01710	  5.24131	  6.54877	  4.85962	  6.95068	  0.02418	 11.03848	707.65601	 24.50	
  3.399	-96.763	 11.02707	  5.71545	  6.05907	  4.69127	  7.14964	  0.01599	 11.04297	707.69202	 24.50	
  3.394	-69.283	 11.05541	  6.23770	  5.56851	  4.77413	  7.10126	  0.01509	 11.06653	707.67297	 24.50	
  3.400	-41.398	 11.03822	  6.69091	  5.13472	  5.06832	  6.76718	  0.02200	 11.04323	707.70001	 24.50	
  3.401	-14.021	 11.04864	  6.94842	  4.91846	  5.51435	  6.31663	  0.03330	 11.05043	707.59399	 24.50	
  3.401	 14.021	 11.08667	  6.99174	  4.92880	  6.07089	  5.81836	  0.05067	 11.08329	707.71399	 24.50	
  3.400	 41.398	 11.08277	  6.73272	  5.16454	  6.53018	  5.38252	  0.04843	 11.07399	707.72302	 24.50	
  3.394	 69.283	 11.07499	  6.30612	  5.56183	  6.81095	  5.11281	  0.04994	 11.06684	707.73401	 24.50	
  3.399	 96.763	 11.08029	  5.77937	  6.08354	  6.87524	  5.05047	  0.05595	 11.07826	707.65900	 24.50	
  3.397	124.529	 11.06758	  5.30437	  6.57040	  6.68145	  5.21479	  0.06004	 11.06824	707.71399	 24.50	
  3.388	152.325	 11.04060	  4.96447	  6.91572	  6.25534	  5.56601	  0.05941	 11.04623	707.65503	 24.50	
  5.099	161.165	 11.00872	  4.32670	  7.47948	  6.19870	  5.46149	  0.01692	 11.07431	707.65900	 24.50	
  5.109	142.013	 11.02417	  4.57581	  7.20900	  6.71750	  5.01224	  0.01268	 11.08189	707.68298	 24.50	
  5.095	123.033	 11.01914	  4.95333	  6.77964	  7.10031	  4.67872	  0.00642	 11.06814	707.66699	 24.50	
  5.105	104.191	 11.01951	  5.43825	  6.25317	  7.35387	  4.46820	  0.01001	 11.05477	707.78003	 24.50	
  5.093	 85.207	 11.04312	  5.97243	  5.72584	  7.41252	  4.43968	  0.00440	 11.07199	707.81598	 24.50	
  5.104	 66.290	 11.02613	  6.50048	  5.20157	  7.27305	  4.54745	  0.00708	 11.05545	707.87000	 24.50	
  5.094	 47.331	 11.02711	  6.96196	  4.77967	  6.96581	  4.81333	  0.00150	 11.05988	707.87500	 24.50	
  5.089	 28.397	 11.02850	  7.31419	  4.46423	  6.52531	  5.20820	  0.00037	 11.06416	707.73901	 24.50	
  5.096	  9.576	 11.02315	  7.49553	  4.29953	  6.00006	  5.69592	 -0.00149	 11.06324	707.66302	 24.50	
  5.096	 -9.576	 11.01320	  7.48422	  4.29521	  5.42579	  6.25133	 -0.01021	 11.05640	707.70801	 24.50	
  5.089	-28.397	 11.00227	  7.27960	  4.45743	  4.92016	  6.76809	 -0.02037	 11.05539	707.71503	 24.50	
  5.094	-47.331	 10.97543	  6.90292	  4.75664	  4.49101	  7.20857	 -0.03283	 11.03932	707.81500	 24.50	
  5.104	-66.290	 10.99170	  6.43792	  5.19597	  4.20500	  7.55083	 -0.04315	 11.06960	707.78497	 24.50	
  5.093	-85.207	 10.98411	  5.89539	  5.71308	  4.07109	  7.69669	 -0.03220	 11.06786	707.90100	 24.50	
  5.105	-104.191	 10.94778	  5.33887	  6.24358	  4.08597	  7.62496	 -0.03753	 11.03716	707.87701	 24.50	
  5.095	-123.033	 10.95885	  4.87331	  6.76652	  4.28720	  7.39158	 -0.02432	 11.05144	707.81598	 24.50	
  5.109	-142.013	 10.94994	  4.49825	  7.18819	  4.62390	  6.99496	 -0.00104	 11.04446	707.80200	 24.50	
  5.099	-161.165	 10.94910	  4.27916	  7.45221	  5.08744	  6.48865	  0.00240	 11.03252	707.77301	 24.50	
  5.100	180.000	 11.00751	  4.23454	  7.58550	  5.65537	  5.97856	  0.02246	 11.08411	707.79901	 24.50	
  6.800	180.000	 10.86654	  3.57881	  8.05618	  5.49554	  5.84843	 -0.03209	 11.05401	707.74298	 24.50	
  6.796	-166.229	 10.85771	  3.62702	  7.98719	  4.96971	  6.37635	 -0.06207	 11.05331	707.80701	 24.40	
  6.808	-152.311	 10.86260	  3.78453	  7.79325	  4.48900	  6.89817	 -0.07056	 11.06158	707.82501	 24.40	
  6.795	-138.383	 10.86461	  4.05904	  7.46622	  4.07231	  7.37381	 -0.07728	 11.07026	707.88599	 24.40	
  6.792	-124.591	 10.85073	  4.41975	  7.03296	  3.74484	  7.74779	 -0.09609	 11.05978	707.79401	 24.40	
  6.787	-110.754	 10.85448	  4.86563	  6.54092	  3.53401	  8.01713	 -0.11534	 11.05823	707.85999	 24.50	
  6.800	-96.985	 10.86621	  5.36993	  6.01652	  3.43019	  8.16595	 -0.12656	 11.06932	707.78003	 24.40	
  6.800	-83.015	 10.86274	  5.91077	  5.47011	  3.44046	  8.16030	 -0.13558	 11.05808	707.75403	 24.40	
  6.787	-69.246	 10.87994	  6.44566	  4.96992	  3.56741	  8.03053	 -0.13642	 11.06760	707.91199	 24.40	
  6.792	-55.409	 10.85287	  6.92144	  4.50204	  3.78843	  7.74159	 -0.12468	 11.02763	707.78400	 24.40	
  6.795	-41.617	 10.90183	  7.37597	  4.14758	  4.14534	  7.38746	 -0.10696	 11.06443	707.88300	 24.40	
  6.808	-27.689	 10.89426	  7.70511	  3.85625	  4.56736	  6.90660	 -0.09614	 11.04696	707.91699	 24.40	
  6.796	-13.771	 10.90976	  7.91971	  3.69222	  5.06312	  6.39680	 -0.08364	 11.04838	707.81299	 24.40	
  6.800	  0.000	 10.93370	  8.01309	  3.63762	  5.60443	  5.87181	 -0.07298	 11.06271	707.91998	 24.40	
  6.796	 13.771	 10.94495	  7.95691	  3.69526	  6.15508	  5.34765	 -0.06818	 11.07198	707.93402	 24.40	
  6.808	 27.689	 10.93525	  7.75472	  3.85584	  6.66949	  4.85576	 -0.06941	 11.05252	707.88300	 24.40	
  6.795	 41.617	 10.95225	  7.44143	  4.14462	  7.13720	  4.45824	 -0.06310	 11.06828	707.80499	 24.40	
  6.792	 55.409	 10.96226	  7.02242	  4.52348	  7.51940	  4.13876	 -0.05680	 11.07255	707.70398	 24.40	
  6.787	 69.246	 10.94190	  6.52070	  4.96464	  7.76635	  3.91431	 -0.06282	 11.05444	707.81500	 24.40	
  6.800	 83.015	 10.93795	  5.99546	  5.46221	  7.90144	  3.79221	 -0.06428	 11.05010	707.88397	 24.40	
  6.800	 96.985	 10.93868	  5.45490	  6.00515	  7.89840	  3.79302	 -0.06529	 11.05859	707.83899	 24.40	
  6.787	110.754	 10.90974	  4.94519	  6.52118	  7.72996	  3.90752	 -0.06509	 11.03420	707.81000	 24.40	
  6.792	124.591	 10.92077	  4.50147	  7.02930	  7.46376	  4.13959	 -0.05432	 11.06105	708.02899	 24.40	
  6.795	138.383	 10.90206	  4.12513	  7.44615	  7.06351	  4.45514	 -0.04883	 11.04895	707.78003	 24.40	
  6.808	152.311	 10.90742	  3.83829	  7.79041	  6.59914	  4.86018	 -0.04875	 11.07007	707.90100	 24.40	
  6.796	166.229	 10.88565	  3.65697	  7.98849	  6.05772	  5.33037	 -0.04385	 11.06083	708.08301	 24.40	
  8.491	168.704	 10.73696	  2.98995	  8.46029	  5.92447	  5.16617	 -0.11982	 11.06229	707.85303	 24.40	
  8.502	157.493	 10.73747	  3.13060	  8.28577	  6.46882	  4.66738	 -0.12952	 11.05057	707.95099	 24.40	
  8.494	146.194	 10.75487	  3.37429	  8.00520	  6.99189	  4.22357	 -0.12836	 11.05220	707.96198	 24.40	
  8.495	135.039	 10.75063	  3.68631	  7.62519	  7.44802	  3.83674	 -0.12817	 11.03694	707.87701	 24.40	
  8.487	123.723	 10.78334	  4.09442	  7.18295	  7.84974	  3.53998	 -0.14304	 11.05279	707.93103	 24.40	
  8.492	112.575	 10.79466	  4.54720	  6.68250	  8.13795	  3.31736	 -0.15667	 11.05174	707.89502	 24.40	
  8.510	101.220	 10.80052	  5.05498	  6.13722	  8.32000	  3.17323	 -0.16212	 11.04669	707.93201	 24.40	
  8.500	 90.000	 10.81346	  5.59615	  5.59232	  8.38601	  3.13245	 -0.15055	 11.04894	707.96198	 24.40	
  8.510	 78.780	 10.81541	  6.14524	  5.05073	  8.33808	  3.17268	 -0.14731	 11.05082	707.95001	 24.40	
  8.492	 67.425	 10.83595	  6.69701	  4.55258	  8.18196	  3.32187	 -0.14296	 11.06724	708.02399	 24.40	
  8.487	 56.277	 10.82394	  7.18653	  4.09974	  7.90554	  3.54046	 -0.13387	 11.06325	708.01599	 24.40	
  8.495	 44.961	 10.80955	  7.62643	  3.69862	  7.52644	  3.84522	 -0.13145	 11.04974	707.95697	 24.40	
  8.494	 33.806	 10.80706	  7.99000	  3.38900	  7.07829	  4.23678	 -0.14593	 11.05321	707.90601	 24.40	
  8.502	 22.507	 10.79126	  8.25514	  3.15163	  6.56587	  4.68170	 -0.15790	 11.03994	707.90802	 24.40	
  8.491	 11.296	 10.79105	  8.41575	  3.02129	  6.02954	  5.18439	 -0.15379	 11.04643	708.04303	 24.40	
  8.500	  0.000	 10.79225	  8.47243	  2.97510	  5.46676	  5.73205	 -0.15627	 11.05371	707.89801	 24.40	
  8.491	-11.296	 10.79848	  8.41379	  3.02827	  4.92581	  6.28656	 -0.16543	 11.06998	707.87000	 24.40	
  8.502	-22.507	 10.76051	  8.21620	  3.15508	  4.39868	  6.80296	 -0.17667	 11.04149	707.90100	 24.40	
  8.494	-33.806	 10.75817	  7.93314	  3.39062	  3.93017	  7.32042	 -0.18653	 11.05139	708.05798	 24.40	
  8.495	-44.961	 10.73307	  7.54862	  3.69908	  3.52700	  7.75889	 -0.20423	 11.04251	707.91998	 24.40	
  8.487	-56.277	 10.73441	  7.09461	  4.10356	  3.21138	  8.13001	 -0.22470	 11.05553	708.02100	 24.40	
  8.492	-67.425	 10.70970	  6.58248	  4.54556	  2.96632	  8.39483	 -0.24018	 11.04720	708.04401	 24.40	
  8.510	-78.780	 10.70503	  6.03852	  5.05549	  2.80650	  8.57842	 -0.24403	 11.05607	707.88599	 24.40	
  8.500	-90.000	 10.71580	  5.49385	  5.60694	  2.75511	  8.64645	 -0.23507	 11.07509	708.09802	 24.40	
  8.510	-101.220	 10.71823	  4.95905	  6.15795	  2.78807	  8.59481	 -0.22124	 11.08050	708.03003	 24.40	
  8.492	-112.575	 10.67368	  4.43547	  6.67528	  2.91201	  8.37726	 -0.20374	 11.03592	707.94202	 24.40	
  8.487	-123.723	 10.69935	  4.00117	  7.19249	  3.13739	  8.11608	 -0.18034	 11.06395	707.34100	 24.40	
  8.495	-135.039	 10.69768	  3.61225	  7.64179	  3.43570	  7.74602	 -0.16112	 11.06612	707.81598	 24.40	
  8.494	-146.194	 10.70449	  3.31274	  8.01378	  3.82715	  7.29959	 -0.15075	 11.06913	706.46301	 24.40	
  8.502	-157.493	 10.70163	  3.08930	  8.29134	  4.28792	  6.78200	 -0.15236	 11.05905	707.31000	 24.40	
  8.491	-168.704	 10.70740	  2.96452	  8.45696	  4.79796	  6.24836	 -0.14444	 11.05490	707.97302	 24.40	
  8.500	180.000	 10.73473	  2.93123	  8.52900	  5.35327	  5.71198	 -0.12209	 11.07315	707.93402	 24.40	
 10.200	180.000	 10.50974	  2.25686	  8.93597	  5.16215	  5.51987	 -0.20992	 11.04174	707.93201	 24.40	
 10.191	-170.497	 10.50600	  2.28591	  8.89321	  4.60729	  6.07103	 -0.22798	 11.05296	707.76202	 24.40	
 10.210	-161.034	 10.49963	  2.38761	  8.75374	  4.08333	  6.61770	 -0.24317	 11.05861	707.27197	 24.40	
 10.194	-151.526	 10.50057	  2.58099	  8.51040	  3.59638	  7.15803	 -0.24087	 11.05979	707.87201	 24.40	
 10.190	-142.105	 10.47585	  2.83062	  8.16686	  3.16159	  7.63204	 -0.23708	 11.04172	707.38000	 24.40	
 10.215	-132.646	 10.49429	  3.15750	  7.78830	  2.80255	  8.08166	 -0.24887	 11.06469	706.21997	 24.40	
 10.203	-123.092	 10.48151	  3.54914	  7.30749	  2.50162	  8.44195	 -0.26917	 11.05195	706.38599	 24.40	
 10.192	-113.678	 10.48931	  4.00210	  6.79979	  2.28238	  8.73725	 -0.29239	 11.06221	707.98102	 24.40	
 10.208	-104.249	 10.47079	  4.48726	  6.24860	  2.13088	  8.92789	 -0.31862	 11.03823	706.47699	 24.40	
 10.210	-94.801	 10.48589	  5.02255	  5.70157	  2.06537	  9.04409	 -0.33745	 11.05281	707.93103	 24.40	
 10.210	-85.199	 10.49144	  5.58451	  5.13852	  2.07811	  9.04614	 -0.34887	 11.04742	707.96503	 24.40	
 10.208	-75.751	 10.50880	  6.14753	  4.61133	  2.17031	  8.95682	 -0.34976	 11.05901	707.81598	 24.40	
 10.192	-66.322	 10.54101	  6.70460	  4.12479	  2.35082	  8.77516	 -0.34130	 11.07302	706.36902	 24.40	
 10.203	-56.908	 10.53745	  7.21404	  3.66159	  2.58975	  8.47985	 -0.32562	 11.04941	706.31799	 24.40	
 10.215	-47.354	 10.53111	  7.67705	  3.24961	  2.90136	  8.09608	 -0.30059	 11.02750	706.39203	 24.40	
 10.190	-37.895	 10.57232	  8.10264	  2.92730	  3.28835	  7.68797	 -0.28117	 11.05670	707.00598	 24.40	
 10.194	-28.474	 10.60056	  8.44894	  2.66186	  3.72877	  7.21268	 -0.26704	 11.06830	706.35199	 24.40	
 10.210	-18.966	 10.60212	  8.69435	  2.46075	  4.22146	  6.67180	 -0.25657	 11.05799	706.40900	 24.40	
 10.191	 -9.503	 10.60463	  8.83737	  2.34670	  4.74859	  6.12021	 -0.25155	 11.05064	706.35602	 24.40	
 10.200	  0.000	 10.61525	  8.90296	  2.30351	  5.30541	  5.56753	 -0.24808	 11.05090	706.89801	 24.40	
 10.191	  9.503	 10.62649	  8.87042	  2.33761	  5.88153	  5.01582	 -0.25268	 11.05558	706.39502	 24.40	
 10.210	 18.966	 10.63579	  8.74353	  2.44710	  6.44005	  4.50101	 -0.25989	 11.06476	706.35199	 24.40	
 10.194	 28.474	 10.62635	  8.49127	  2.64498	  6.96322	  4.01872	 -0.24859	 11.04677	706.30701	 24.40	
 10.190	 37.895	 10.63231	  8.17168	  2.91232	  7.45819	  3.58940	 -0.23023	 11.04569	706.38300	 24.40	
 10.215	 47.354	 10.65386	  7.79359	  3.24462	  7.91154	  3.21495	 -0.21528	 11.06858	706.31598	 24.40	
 10.203	 56.908	 10.64173	  7.31668	  3.64781	  8.25483	  2.92185	 -0.21970	 11.04213	706.39801	 24.40	
 10.192	 66.322	 10.66798	  6.82336	  4.11576	  8.54437	  2.71139	 -0.22284	 11.06834	706.39801	 24.40	
 10.208	 75.751	 10.64612	  6.27390	  4.60238	  8.72264	  2.54559	 -0.22968	 11.04572	706.44000	 24.40	
 10.210	 85.199	 10.66155	  5.72775	  5.14308	  8.83334	  2.47047	 -0.24184	 11.06585	706.51202	 24.40	
 10.210	 94.801	 10.65869	  5.16732	  5.70962	  8.82717	  2.47591	 -0.25614	 11.06621	706.41498	 24.40	
 10.208	104.249	 10.65418	  4.63547	  6.26762	  8.72326	  2.55702	 -0.25835	 11.07481	706.45001	 24.40	
 10.192	113.678	 10.62595	  4.12954	  6.79767	  8.49833	  2.71149	 -0.25261	 11.04998	706.31299	 24.40	
 10.203	123.092	 10.60965	  3.66763	  7.31175	  8.20722	  2.92950	 -0.23611	 11.05350	706.34601	 24.40	
 10.215	132.646	 10.60491	  3.25487	  7.78967	  7.84076	  3.21478	 -0.21673	 11.06559	706.37799	 24.40	
 10.190	142.105	 10.56739	  2.91371	  8.16937	  7.36654	  3.57509	 -0.20915	 11.03774	706.96503	 24.40	
 10.194	151.526	 10.57230	  2.64558	  8.51055	  6.87000	  4.00305	 -0.21335	 11.06088	706.36902	 24.40	
 10.210	161.034	 10.55151	  2.43639	  8.75129	  6.31918	  4.46852	 -0.20908	 11.05451	706.54303	 24.40	
 10.191	170.497	 10.54309	  2.31513	  8.89885	  5.75483	  4.98248	 -0.20298	 11.06228	706.71503	 24.40	
 11.899	171.783	 10.29735	  1.64986	  9.28952	  5.55691	  4.76984	 -0.29434	 11.04980	706.45398	 24.40	
 11.890	163.610	 10.29757	  1.75692	  9.14888	  6.11924	  4.25153	 -0.29630	 11.03364	706.53601	 24.40	
 11.889	155.445	 10.34464	  1.93373	  8.96717	  6.69391	  3.78263	 -0.29515	 11.06704	706.41901	 24.40	
 11.909	147.299	 10.35063	  2.16158	  8.67404	  7.22504	  3.32822	 -0.29400	 11.05863	706.46198	 24.40	
 11.902	139.148	 10.39220	  2.46911	  8.33086	  7.73467	  2.94312	 -0.29674	 11.08331	706.81097	 24.40	
 11.894	130.867	 10.37988	  2.82199	  7.88110	  8.15049	  2.60006	 -0.30779	 11.04957	706.58301	 24.40	
 11.897	122.732	 10.39297	  3.22468	  7.40667	  8.52484	  2.31626	 -0.32842	 11.04892	708.10498	 24.40	
 11.903	114.597	 10.40115	  3.67235	  6.88868	  8.82527	  2.09237	 -0.35036	 11.04461	706.45398	 24.40	
 11.893	106.346	 10.41466	  4.17505	  6.33734	  9.04779	  1.92858	 -0.36482	 11.04297	706.43903	 24.40	
 11.892	 98.155	 10.45005	  4.71541	  5.79153	  9.20431	  1.83566	 -0.36574	 11.06930	706.62598	 24.40	
 11.900	 90.000	 10.44328	  5.25566	  5.22380	  9.24182	  1.79536	 -0.35236	 11.05419	707.93402	 24.40	
 11.892	 81.845	 10.45031	  5.81149	  4.68126	  9.20532	  1.82862	 -0.33329	 11.05765	706.58801	 24.40	
 11.893	 73.654	 10.43629	  6.35935	  4.14775	  9.06890	  1.92321	 -0.31551	 11.03962	707.86401	 24.40	
 11.903	 65.403	 10.45904	  6.92328	  3.65586	  8.88097	  2.09315	 -0.29882	 11.06753	706.46198	 24.40	
 11.897	 57.268	 10.44837	  7.42974	  3.20351	  8.58514	  2.32203	 -0.29357	 11.06058	706.51001	 24.40	
 11.894	 49.133	 10.43884	  7.89519	  2.80419	  8.22396	  2.61322	 -0.28751	 11.05424	706.41901	 24.40	
 11.902	 40.852	 10.42257	  8.31140	  2.44490	  7.79619	  2.95931	 -0.30558	 11.04586	706.57397	 24.40	
 11.909	 32.701	 10.41238	  8.66045	  2.15636	  7.32115	  3.35491	 -0.32817	 11.04463	707.35699	 24.40	
 11.889	 24.555	 10.42561	  8.95380	  1.93485	  6.80639	  3.81694	 -0.34605	 11.05827	706.49799	 24.40	
 11.890	 16.390	 10.43403	  9.16572	  1.77677	  6.27099	  4.30977	 -0.34728	 11.07387	706.62299	 24.40	
 11.899	  8.217	 10.40726	  9.26695	  1.67498	  5.70097	  4.81924	 -0.33583	 11.05051	706.60303	 24.40	
 11.900	  0.000	 10.37974	  9.27973	  1.64191	  5.11219	  5.36659	 -0.32778	 11.02582	706.54303	 24.40	
 11.899	 -8.217	 10.38404	  9.23935	  1.67731	  4.56330	  5.92690	 -0.33527	 11.03786	706.68701	 24.40	
 11.890	-16.390	 10.37957	  9.10488	  1.78007	  4.03431	  6.48009	 -0.33559	 11.04714	706.55200	 24.40	
 11.889	-24.555	 10.37174	  8.88893	  1.94292	  3.52452	  7.03016	 -0.34106	 11.04899	706.56000	 24.40	
 11.909	-32.701	 10.35236	  8.59219	  2.16763	  3.05981	  7.53924	 -0.35248	 11.04630	706.52399	 24.40	
 11.902	-40.852	 10.34625	  8.23004	  2.45995	  2.65436	  8.01131	 -0.37140	 11.05772	706.59698	 24.40	
 11.894	-49.133	 10.32683	  7.78835	  2.81541	  2.28930	  8.43241	 -0.39807	 11.05248	706.56000	 24.40	
 11.897	-57.268	 10.33392	  7.32314	  3.21712	  1.98728	  8.81095	 -0.41509	 11.08308	706.48499	 24.40	
 11.903	-65.403	 10.28291	  6.77640	  3.65745	  1.73692	  9.06934	 -0.42269	 11.04626	706.60498	 24.40	
 11.893	-73.654	 10.29039	  6.23300	  4.16326	  1.56797	  9.29243	 -0.43556	 11.07128	706.58398	 24.40	
 11.892	-81.845	 10.27224	  5.66705	  4.68454	  1.45982	  9.40713	 -0.43948	 11.06152	706.44800	 24.40	
 11.900	-90.000	 10.26150	  5.10328	  5.22926	  1.40784	  9.44747	 -0.43928	 11.06265	706.65399	 24.40	
 11.892	-98.155	 10.27052	  4.56406	  5.79616	  1.43260	  9.41083	 -0.43033	 11.07577	706.39502	 24.40	
 11.893	-106.346	 10.24720	  4.03417	  6.34096	  1.51298	  9.26013	 -0.41096	 11.05981	706.43701	 24.50	
 11.903	-114.597	 10.26266	  3.54271	  6.90370	  1.66170	  9.06272	 -0.38277	 11.07891	706.61603	 24.50	
 11.897	-122.732	 10.24234	  3.09643	  7.39885	  1.87680	  8.74882	 -0.35198	 11.05572	706.61200	 24.50	
 11.894	-130.867	 10.22638	  2.70438	  7.85928	  2.16148	  8.36652	 -0.33371	 11.03352	706.58002	 24.50	
 11.902	-139.148	 10.24312	  2.36354	  8.29863	  2.51328	  7.94640	 -0.32397	 11.05312	706.46301	 24.50	
 11.909	-147.299	 10.24314	  2.07974	  8.65939	  2.90747	  7.47331	 -0.33170	 11.04954	706.56702	 24.50	
 11.889	-155.445	 10.25882	  1.87126	  8.95229	  3.36736	  6.96615	 -0.33722	 11.05578	706.53998	 24.50	
 11.890	-163.610	 10.26419	  1.72243	  9.15982	  3.87342	  6.42136	 -0.32946	 11.05562	706.57501	 24.50	
 11.899	-171.783	 10.28891	  1.63612	  9.30548	  4.41482	  5.87829	 -0.32060	 11.06492	706.54901	 24.50	
 11.900	180.000	 10.29040	  1.60872	  9.33814	  4.97236	  5.32166	 -0.30026	 11.05487	706.58301	 24.50	
 13.600	180.000	 10.01920	  0.95745	  9.69803	  4.75286	  5.08353	 -0.39727	 11.05974	706.38000	 24.50	
 13.608	-172.853	  9.99806	  0.97045	  9.65812	  4.19099	  5.62405	 -0.41170	 11.05626	706.49500	 24.50	
 13.611	-165.583	  9.98822	  1.04500	  9.54638	  3.64356	  6.18573	 -0.42544	 11.05990	706.49298	 24.50	
 13.601	-158.353	  9.97441	  1.17622	  9.34849	  3.11956	  6.74097	 -0.42679	 11.05259	706.64203	 24.50	
 13.609	-151.210	  9.96130	  1.35370	  9.08666	  2.64764	  7.25930	 -0.42243	 11.04490	706.65302	 24.50	
 13.611	-143.999	  9.99083	  1.59720	  8.79078	  2.23332	  7.78484	 -0.41326	 11.08524	706.59802	 24.50	
 13.601	-136.825	  9.95005	  1.88528	  8.36975	  1.84739	  8.22008	 -0.40152	 11.04114	706.71002	 24.50	
 13.596	-129.640	  9.97359	  2.23703	  7.94831	  1.52747	  8.66028	 -0.41269	 11.06716	706.54401	 24.50	
