FileType=PCF
NHL=14
Date=08/25/17	16:34:28
Facility=APL
Serial=16328-7
Customer=NASA
NP=6
Mach=0.050000
Calibration=1:1
CalPts=490
TstPts=95
PortNumbering=AP Standard
Units=Torr C m/s kg/m^3 deg mm 
Theta[deg]	Phi[deg]	P1[Torr]	P2[Torr]	P3[Torr]	P4[Torr]	P5[Torr]	P6[Torr]	Pt[Torr]	Ps[Abs,Torr]	Ts[C]	
  0.000	  0.000	  1.26653	  0.70561	  0.71083	  0.69663	  0.72579	  0.00761	  1.25847	708.22400	 22.40	
  1.691	128.401	  1.27223	  0.66698	  0.73585	  0.72880	  0.67978	  0.00715	  1.26313	708.37799	 22.40	
  1.692	 77.194	  1.27187	  0.70876	  0.69435	  0.73997	  0.67209	  0.00750	  1.26266	708.31598	 22.40	
  1.699	 26.182	  1.26706	  0.74466	  0.65573	  0.70926	  0.69198	  0.00566	  1.25866	708.22601	 22.40	
  1.699	-26.182	  1.26264	  0.73988	  0.65082	  0.65635	  0.73765	  0.00367	  1.25576	708.16400	 22.40	
  1.692	-77.194	  1.26693	  0.70416	  0.68759	  0.63266	  0.77089	  0.00469	  1.26068	708.24103	 22.40	
  1.691	-128.401	  1.26310	  0.65792	  0.73142	  0.63877	  0.75712	  0.00493	  1.25656	708.25403	 22.40	
  1.700	180.000	  1.26604	  0.64190	  0.75524	  0.68110	  0.71423	  0.00670	  1.25854	708.25702	 22.40	
  3.400	180.000	  1.26091	  0.57564	  0.81485	  0.67325	  0.70813	  0.00346	  1.25596	708.25201	 22.40	
  3.388	-152.325	  1.26672	  0.58899	  0.80417	  0.62361	  0.76629	  0.00279	  1.26382	708.24402	 22.40	
  3.397	-124.529	  1.25761	  0.61832	  0.75890	  0.58136	  0.80466	  0.00110	  1.25599	708.24402	 22.40	
  3.399	-96.763	  1.25861	  0.66881	  0.70320	  0.56241	  0.82766	  0.00004	  1.25734	708.20898	 22.40	
  3.394	-69.283	  1.25936	  0.72276	  0.64868	  0.56770	  0.82009	 -0.00250	  1.25741	708.24402	 22.40	
  3.400	-41.398	  1.25883	  0.77208	  0.60480	  0.59784	  0.78647	 -0.00189	  1.25568	708.27802	 22.30	
  3.401	-14.021	  1.26386	  0.80594	  0.58369	  0.64765	  0.73998	  0.00236	  1.25777	708.19000	 22.30	
  3.401	 14.021	  1.26659	  0.80774	  0.58525	  0.70764	  0.68275	  0.00245	  1.25974	708.30200	 22.30	
  3.400	 41.398	  1.27041	  0.78329	  0.61282	  0.76152	  0.63937	  0.00454	  1.26096	708.08801	 22.30	
  3.394	 69.283	  1.26746	  0.73209	  0.65642	  0.79332	  0.61016	  0.00413	  1.25863	708.17902	 22.30	
  3.399	 96.763	  1.26248	  0.67523	  0.70642	  0.79714	  0.60152	  0.00492	  1.25274	708.18701	 22.30	
  3.397	124.529	  1.26523	  0.62731	  0.76063	  0.77781	  0.61873	  0.00565	  1.25593	708.16998	 22.30	
  3.388	152.325	  1.26220	  0.59028	  0.79939	  0.73061	  0.65469	  0.00476	  1.25512	708.02899	 22.30	
  5.099	161.165	  1.25338	  0.51631	  0.86142	  0.72396	  0.63941	  0.00057	  1.25279	708.08801	 22.30	
  5.109	142.013	  1.25821	  0.54736	  0.83175	  0.78298	  0.59388	  0.00209	  1.25588	708.13898	 22.30	
  5.095	123.033	  1.25704	  0.58739	  0.78450	  0.82494	  0.55787	  0.00186	  1.25249	708.16101	 22.30	
  5.105	104.191	  1.26691	  0.64527	  0.73418	  0.85761	  0.54333	  0.00191	  1.26098	708.03802	 22.30	
  5.093	 85.207	  1.26158	  0.69820	  0.67113	  0.85940	  0.53545	 -0.00051	  1.25496	708.12799	 22.30	
  5.104	 66.290	  1.26580	  0.75826	  0.61821	  0.84611	  0.54940	 -0.00016	  1.25847	708.15601	 22.40	
  5.094	 47.331	  1.26346	  0.80917	  0.56909	  0.80871	  0.57783	 -0.00073	  1.25694	708.13000	 22.40	
  5.089	 28.397	  1.25715	  0.84459	  0.53263	  0.75741	  0.61749	 -0.00032	  1.25257	708.11200	 22.40	
  5.096	  9.576	  1.26414	  0.86921	  0.51747	  0.70356	  0.67510	 -0.00242	  1.26145	708.23297	 22.40	
  5.096	 -9.576	  1.26078	  0.86638	  0.51491	  0.63892	  0.73448	 -0.00354	  1.25924	707.98798	 22.40	
  5.089	-28.397	  1.25611	  0.84011	  0.53272	  0.58317	  0.78878	 -0.00509	  1.25625	708.19501	 22.40	
  5.094	-47.331	  1.25570	  0.80217	  0.56156	  0.53574	  0.83835	 -0.00795	  1.25865	708.09802	 22.40	
  5.104	-66.290	  1.25196	  0.74563	  0.60874	  0.50404	  0.87101	 -0.00991	  1.25736	708.02899	 22.40	
  5.093	-85.207	  1.25696	  0.68852	  0.66848	  0.49143	  0.89050	 -0.00991	  1.26384	708.11902	 22.30	
  5.105	-104.191	  1.25101	  0.62746	  0.72535	  0.49403	  0.88119	 -0.00795	  1.25770	708.04102	 22.40	
  5.095	-123.033	  1.25068	  0.57550	  0.78226	  0.51478	  0.85420	 -0.00823	  1.25689	708.15302	 22.30	
  5.109	-142.013	  1.25489	  0.53740	  0.83264	  0.55528	  0.81230	 -0.00465	  1.26084	708.22400	 22.30	
  5.099	-161.165	  1.25691	  0.51373	  0.86419	  0.60589	  0.75932	 -0.00318	  1.26143	708.20599	 22.30	
  5.100	180.000	  1.25708	  0.50700	  0.87470	  0.66462	  0.69938	 -0.00116	  1.25974	708.08899	 22.30	
  6.800	180.000	  1.24428	  0.43644	  0.92995	  0.65205	  0.68617	 -0.00742	  1.25831	708.15399	 22.30	
  6.796	-166.229	  1.24335	  0.44158	  0.92146	  0.59364	  0.74458	 -0.00802	  1.25892	708.17102	 22.30	
  6.808	-152.311	  1.24053	  0.45808	  0.89643	  0.53875	  0.80026	 -0.00774	  1.25780	708.17102	 22.30	
  6.795	-138.383	  1.24398	  0.48547	  0.86244	  0.49155	  0.85458	 -0.01285	  1.26367	708.26300	 22.30	
  6.792	-124.591	  1.23606	  0.52204	  0.81061	  0.45359	  0.89104	 -0.01451	  1.25670	708.07703	 22.30	
  6.787	-110.754	  1.23683	  0.57174	  0.75506	  0.42889	  0.92183	 -0.01737	  1.25627	708.09198	 22.30	
  6.800	-96.985	  1.23926	  0.62840	  0.69849	  0.41863	  0.93961	 -0.01801	  1.26024	708.20099	 22.30	
  6.800	-83.015	  1.23742	  0.68540	  0.63726	  0.41742	  0.93763	 -0.01967	  1.25786	708.17902	 22.30	
  6.787	-69.246	  1.23901	  0.74482	  0.58245	  0.43182	  0.92413	 -0.01950	  1.25737	708.11902	 22.30	
  6.792	-55.409	  1.24121	  0.80029	  0.53492	  0.45771	  0.89623	 -0.01901	  1.25682	708.10303	 22.30	
  6.795	-41.617	  1.24055	  0.84853	  0.49399	  0.49513	  0.85423	 -0.01443	  1.25470	708.05200	 22.30	
  6.808	-27.689	  1.24684	  0.89010	  0.46301	  0.54317	  0.80546	 -0.01381	  1.25838	708.15302	 22.30	
  6.796	-13.771	  1.24913	  0.91422	  0.44644	  0.59840	  0.74902	 -0.01140	  1.25933	708.04102	 22.30	
  6.800	  0.000	  1.25336	  0.92731	  0.44147	  0.65943	  0.69332	 -0.00951	  1.26065	708.11902	 22.30	
  6.796	 13.771	  1.25476	  0.92161	  0.44916	  0.72048	  0.63639	 -0.00830	  1.25996	708.05200	 22.30	
  6.808	 27.689	  1.25337	  0.89848	  0.46830	  0.77844	  0.58284	 -0.00700	  1.25784	708.01300	 22.30	
  6.795	 41.617	  1.25950	  0.86635	  0.50116	  0.83267	  0.54080	 -0.00593	  1.26104	708.13599	 22.30	
  6.792	 55.409	  1.25992	  0.82059	  0.54356	  0.87672	  0.50483	 -0.00434	  1.26081	707.96997	 22.30	
  6.787	 69.246	  1.25778	  0.76400	  0.59286	  0.90399	  0.48123	 -0.00454	  1.25758	707.97101	 22.30	
  6.800	 83.015	  1.25689	  0.70653	  0.64714	  0.91922	  0.46794	 -0.00396	  1.25736	708.01898	 22.30	
  6.800	 96.985	  1.25795	  0.64799	  0.70629	  0.91813	  0.46859	 -0.00671	  1.25950	708.03497	 22.30	
  6.787	110.754	  1.25784	  0.59059	  0.76717	  0.90357	  0.47907	 -0.00623	  1.26085	707.87201	 22.30	
  6.792	124.591	  1.26043	  0.54304	  0.82348	  0.87443	  0.50452	 -0.00529	  1.26427	708.04102	 22.30	
  6.795	138.383	  1.25319	  0.49932	  0.86500	  0.82566	  0.53709	 -0.00490	  1.25832	708.05701	 22.30	
  6.808	152.311	  1.25541	  0.46752	  0.90548	  0.77687	  0.58114	 -0.00653	  1.26448	708.02399	 22.30	
  6.796	166.229	  1.24281	  0.44137	  0.92025	  0.71113	  0.62686	 -0.00693	  1.25437	707.96503	 22.30	
  8.491	168.704	  1.23434	  0.37366	  0.97854	  0.70111	  0.61430	 -0.01290	  1.26168	707.97101	 22.30	
  8.502	157.493	  1.23382	  0.38952	  0.95775	  0.76160	  0.55841	 -0.01346	  1.25938	708.09998	 22.30	
  8.494	146.194	  1.23893	  0.41793	  0.93021	  0.82188	  0.51119	 -0.01142	  1.26203	708.07202	 22.30	
  8.495	135.039	  1.23700	  0.45030	  0.88712	  0.87140	  0.46791	 -0.01155	  1.25765	708.05200	 22.40	
  8.487	123.723	  1.24037	  0.49644	  0.83858	  0.91573	  0.43651	 -0.01236	  1.25877	708.00500	 22.30	
  8.492	112.575	  1.24425	  0.54677	  0.78506	  0.94862	  0.41398	 -0.01465	  1.25996	708.00500	 22.30	
  8.510	101.220	  1.24608	  0.60435	  0.72579	  0.96954	  0.40050	 -0.01304	  1.26096	708.14301	 22.40	
  8.500	 90.000	  1.24531	  0.66362	  0.66362	  0.97535	  0.39606	 -0.01142	  1.25824	708.16101	 22.40	
  8.510	 78.780	  1.24112	  0.72179	  0.60068	  0.96657	  0.39918	 -0.01199	  1.25344	708.07397	 22.40	
  8.492	 67.425	  1.24501	  0.78415	  0.54612	  0.94993	  0.41598	 -0.01223	  1.25818	707.98199	 22.40	
  8.487	 56.277	  1.24220	  0.83583	  0.49684	  0.91714	  0.43921	 -0.01244	  1.25579	708.11401	 22.40	
  8.495	 44.961	  1.24075	  0.88560	  0.45222	  0.87524	  0.47164	 -0.01016	  1.25565	708.01001	 22.30	
  8.494	 33.806	  1.23871	  0.92371	  0.41670	  0.82374	  0.51352	 -0.01348	  1.25469	708.08801	 22.30	
  8.502	 22.507	  1.24126	  0.95604	  0.39122	  0.76851	  0.56353	 -0.01746	  1.25900	708.08099	 22.30	
  8.491	 11.296	  1.23769	  0.97280	  0.37432	  0.70655	  0.61761	 -0.01657	  1.25720	708.03497	 22.40	
  8.500	  0.000	  1.23077	  0.97201	  0.36766	  0.64091	  0.67417	 -0.01596	  1.25158	708.18500	 22.40	
  8.491	-11.296	  1.22995	  0.96474	  0.37208	  0.58116	  0.73415	 -0.01872	  1.25393	707.98798	 22.40	
  8.502	-22.507	  1.23341	  0.94851	  0.38861	  0.52668	  0.79563	 -0.02057	  1.25960	708.19299	 22.40	
  8.494	-33.806	  1.22655	  0.91194	  0.41149	  0.47165	  0.84794	 -0.02128	  1.25504	708.06403	 22.40	
  8.495	-44.961	  1.22965	  0.87242	  0.44750	  0.42977	  0.90065	 -0.02356	  1.26134	708.07202	 22.40	
  8.487	-56.277	  1.22469	  0.81843	  0.48694	  0.39191	  0.93770	 -0.02781	  1.25789	707.94598	 22.40	
  8.492	-67.425	  1.21763	  0.75827	  0.53491	  0.36552	  0.96263	 -0.03019	  1.25233	708.02100	 22.40	
  8.510	-78.780	  1.22048	  0.69988	  0.59122	  0.34757	  0.98522	 -0.03085	  1.25757	708.01801	 22.40	
  8.500	-90.000	  1.22054	  0.63922	  0.65227	  0.34414	  0.99093	 -0.02930	  1.25857	708.05798	 22.40	
  8.510	-101.220	  1.21842	  0.57981	  0.71098	  0.34700	  0.98263	 -0.02913	  1.25724	707.91699	 22.40	
  8.492	-112.575	  1.21844	  0.52415	  0.77099	  0.36270	  0.96233	 -0.02684	  1.25755	708.02100	 22.40	
  8.487	-123.723	  1.21883	  0.47510	  0.82623	  0.38519	  0.93265	 -0.02566	  1.25706	707.93402	 22.40	
  8.495	-135.039	  1.22235	  0.43575	  0.88164	  0.42287	  0.89377	 -0.01946	  1.26060	707.91199	 22.40	
  8.494	-146.194	  1.22444	  0.40461	  0.92256	  0.46638	  0.84528	 -0.01784	  1.26044	707.78497	 22.40	
  8.502	-157.493	  1.22338	  0.37972	  0.95355	  0.51704	  0.78685	 -0.01847	  1.25858	707.88397	 22.40	
  8.491	-168.704	  1.22540	  0.36589	  0.97332	  0.57347	  0.72954	 -0.01594	  1.25729	707.91699	 22.40	
  8.500	180.000	  1.22601	  0.36379	  0.97844	  0.63441	  0.66894	 -0.01364	  1.25536	707.90802	 22.40	
 10.200	180.000	  1.20581	  0.28963	  1.02976	  0.61559	  0.65033	 -0.02239	  1.25835	707.98798	 22.40	
 10.191	-170.497	  1.20316	  0.29153	  1.02227	  0.55358	  0.70951	 -0.02468	  1.25803	708.17603	 22.40	
 10.210	-161.034	  1.20005	  0.30394	  1.00349	  0.49619	  0.76857	 -0.02500	  1.25640	707.90002	 22.40	
 10.194	-151.526	  1.19878	  0.32352	  0.97484	  0.43943	  0.82848	 -0.02848	  1.25719	708.01001	 22.40	
 10.190	-142.105	  1.20035	  0.35118	  0.93955	  0.39409	  0.88285	 -0.02741	  1.26032	708.05298	 22.40	
 10.215	-132.646	  1.19591	  0.38521	  0.89216	  0.35249	  0.92777	 -0.03014	  1.25676	707.95697	 22.40	
 10.203	-123.092	  1.19090	  0.42627	  0.83711	  0.31807	  0.96516	 -0.03218	  1.25295	708.02100	 22.40	
 10.192	-113.678	  1.19728	  0.47744	  0.78441	  0.29449	  1.00242	 -0.03541	  1.25890	707.88599	 22.40	
 10.208	-104.249	  1.19906	  0.53127	  0.72543	  0.27634	  1.02737	 -0.03907	  1.26176	707.98499	 22.40	
 10.210	-94.801	  1.20452	  0.59219	  0.66603	  0.26992	  1.04263	 -0.03929	  1.26674	707.83197	 22.40	
 10.210	-85.199	  1.19851	  0.65085	  0.60148	  0.26965	  1.03768	 -0.03948	  1.26023	708.01300	 22.40	
 10.208	-75.751	  1.20190	  0.71325	  0.54395	  0.27976	  1.02954	 -0.04168	  1.26207	708.03302	 22.40	
 10.192	-66.322	  1.20513	  0.77600	  0.48928	  0.29882	  1.00869	 -0.03956	  1.26322	708.12000	 22.40	
 10.203	-56.908	  1.20408	  0.83332	  0.43664	  0.32402	  0.97650	 -0.03689	  1.25955	708.05701	 22.40	
 10.215	-47.354	  1.20580	  0.88647	  0.39519	  0.35966	  0.93657	 -0.03343	  1.25808	708.05298	 22.40	
 10.190	-37.895	  1.21072	  0.93314	  0.36059	  0.40330	  0.89071	 -0.03234	  1.26044	708.02600	 22.40	
 10.194	-28.474	  1.21332	  0.97172	  0.33072	  0.44994	  0.83781	 -0.03110	  1.26040	708.12799	 22.40	
 10.210	-18.966	  1.22020	  1.00522	  0.31129	  0.50748	  0.78290	 -0.03079	  1.26553	707.98798	 22.40	
 10.191	 -9.503	  1.21863	  1.02014	  0.29912	  0.56465	  0.72071	 -0.02767	  1.26110	707.95001	 22.40	
 10.200	  0.000	  1.21523	  1.02377	  0.29372	  0.62293	  0.65788	 -0.02829	  1.25564	707.92499	 22.40	
 10.191	  9.503	  1.22079	  1.02337	  0.30097	  0.69033	  0.60020	 -0.02598	  1.25951	708.02698	 22.40	
 10.210	 18.966	  1.22614	  1.01216	  0.31544	  0.75501	  0.54553	 -0.02633	  1.26286	707.90100	 22.40	
 10.194	 28.474	  1.22740	  0.98625	  0.33771	  0.81533	  0.49281	 -0.02365	  1.26289	708.06598	 22.40	
 10.190	 37.895	  1.22521	  0.94955	  0.36521	  0.86741	  0.44584	 -0.02224	  1.25851	708.08502	 22.40	
 10.215	 47.354	  1.22958	  0.90876	  0.40575	  0.92126	  0.40687	 -0.01987	  1.26168	708.09198	 22.40	
 10.203	 56.908	  1.22317	  0.85142	  0.44729	  0.95653	  0.37162	 -0.02141	  1.25468	708.04303	 22.40	
 10.192	 66.322	  1.22602	  0.79695	  0.49958	  0.98932	  0.34976	 -0.02052	  1.25604	708.02100	 22.40	
 10.208	 75.751	  1.22394	  0.73702	  0.55308	  1.00920	  0.33247	 -0.02053	  1.25389	708.05701	 22.40	
 10.210	 85.199	  1.22755	  0.67718	  0.61386	  1.02379	  0.32262	 -0.02259	  1.25832	708.06598	 22.40	
 10.210	 94.801	  1.23057	  0.61669	  0.67770	  1.02669	  0.32303	 -0.02206	  1.26217	708.04102	 22.40	
 10.208	104.249	  1.22526	  0.55571	  0.73733	  1.01153	  0.33088	 -0.02278	  1.25786	708.06897	 22.40	
 10.192	113.678	  1.22417	  0.50242	  0.79693	  0.98942	  0.34770	 -0.02127	  1.25847	708.09198	 22.40	
 10.203	123.092	  1.22199	  0.45086	  0.85396	  0.95636	  0.37150	 -0.02011	  1.25756	708.01801	 22.40	
 10.215	132.646	  1.21765	  0.40574	  0.90334	  0.91320	  0.40131	 -0.01972	  1.25577	708.02100	 22.40	
 10.190	142.105	  1.21310	  0.36803	  0.94405	  0.86042	  0.44011	 -0.01849	  1.25353	707.99597	 22.40	
 10.194	151.526	  1.21502	  0.33696	  0.98386	  0.80636	  0.48599	 -0.02025	  1.25884	708.02899	 22.40	
 10.210	161.034	  1.20997	  0.31314	  1.00706	  0.74288	  0.53581	 -0.02083	  1.25696	708.01898	 22.30	
 10.191	170.497	  1.21225	  0.30075	  1.02653	  0.68297	  0.59294	 -0.01999	  1.26118	708.06000	 22.30	
 11.899	171.783	  1.18453	  0.22351	  1.07088	  0.65986	  0.56774	 -0.03096	  1.26111	707.84900	 22.40	
 11.890	163.610	  1.18696	  0.23793	  1.05651	  0.72440	  0.51250	 -0.02960	  1.25876	708.02698	 22.40	
 11.889	155.445	  1.18802	  0.25745	  1.03417	  0.78524	  0.46013	 -0.03097	  1.25761	708.04303	 22.40	
 11.909	147.299	  1.18740	  0.28345	  1.00030	  0.84342	  0.41115	 -0.02949	  1.25386	708.00897	 22.30	
 11.902	139.148	  1.18702	  0.31531	  0.95900	  0.89648	  0.36806	 -0.02834	  1.25073	707.77002	 22.40	
 11.894	130.867	  1.18764	  0.35462	  0.91038	  0.94347	  0.33112	 -0.02828	  1.24829	708.08502	 22.30	
 11.897	122.732	  1.19526	  0.40080	  0.86231	  0.98825	  0.30309	 -0.03009	  1.25415	707.99500	 22.40	
 11.903	114.597	  1.19751	  0.45195	  0.80588	  1.02454	  0.27828	 -0.03096	  1.25494	708.04401	 22.30	
 11.893	106.346	  1.19855	  0.50661	  0.74486	  1.04734	  0.26270	 -0.03150	  1.25353	707.94800	 22.40	
 11.892	 98.155	  1.20095	  0.56578	  0.68347	  1.06354	  0.25298	 -0.03022	  1.25487	707.93597	 22.30	
 11.900	 90.000	  1.19936	  0.62468	  0.62064	  1.06519	  0.24948	 -0.03027	  1.25101	707.96997	 22.30	
 11.892	 81.845	  1.20566	  0.68809	  0.56409	  1.06719	  0.25350	 -0.03053	  1.25842	708.03497	 22.30	
 11.893	 73.654	  1.20189	  0.74749	  0.50374	  1.04858	  0.26365	 -0.02894	  1.25381	707.98999	 22.30	
 11.903	 65.403	  1.20324	  0.80670	  0.45011	  1.02595	  0.28150	 -0.03198	  1.25487	707.95001	 22.30	
 11.897	 57.268	  1.20900	  0.87101	  0.40277	  1.00054	  0.30938	 -0.02708	  1.26296	708.04401	 22.30	
 11.894	 49.133	  1.20400	  0.91696	  0.35848	  0.95614	  0.33883	 -0.03001	  1.25837	708.01202	 22.30	
 11.902	 40.852	  1.20110	  0.96259	  0.31543	  0.90635	  0.37374	 -0.03134	  1.25616	708.00098	 22.30	
 11.909	 32.701	  1.20027	  1.00215	  0.28313	  0.85251	  0.41784	 -0.03267	  1.25752	707.90900	 22.30	
 11.889	 24.555	  1.19701	  1.03042	  0.25734	  0.79238	  0.46631	 -0.03358	  1.25641	707.97699	 22.30	
 11.890	 16.390	  1.19170	  1.04925	  0.23792	  0.72994	  0.51790	 -0.03329	  1.25090	707.84399	 22.30	
 11.899	  8.217	  1.18732	  1.05988	  0.22433	  0.66479	  0.57263	 -0.03418	  1.24949	708.03302	 22.30	
 11.900	  0.000	  1.18989	  1.06616	  0.22140	  0.60263	  0.63599	 -0.03676	  1.25394	708.01300	 22.30	
 11.899	 -8.217	  1.18598	  1.05750	  0.22279	  0.53947	  0.69438	 -0.03763	  1.25119	708.00500	 22.30	
 11.890	-16.390	  1.18482	  1.04178	  0.23288	  0.48052	  0.75463	 -0.03839	  1.25257	708.00500	 22.30	
 11.889	-24.555	  1.18229	  1.01729	  0.24955	  0.42453	  0.81452	 -0.03840	  1.25284	708.01202	 22.30	
 11.909	-32.701	  1.18307	  0.98478	  0.27484	  0.37408	  0.87185	 -0.04079	  1.25686	708.08801	 22.30	
 11.902	-40.852	  1.17948	  0.94309	  0.30669	  0.33062	  0.92256	 -0.04221	  1.25547	708.01202	 22.30	
 11.894	-49.133	  1.17707	  0.89205	  0.34441	  0.28969	  0.96859	 -0.04505	  1.25566	707.95099	 22.30	
 11.897	-57.268	  1.17792	  0.84121	  0.38846	  0.25695	  1.01023	 -0.04751	  1.25965	707.93103	 22.30	
 11.903	-65.403	  1.17227	  0.77880	  0.43590	  0.22788	  1.03900	 -0.04986	  1.25583	707.95398	 22.30	
 11.893	-73.654	  1.16870	  0.71597	  0.48806	  0.20788	  1.05881	 -0.05337	  1.25348	707.91101	 22.30	
 11.892	-81.845	  1.16865	  0.65467	  0.54707	  0.19697	  1.07309	 -0.05127	  1.25495	707.98102	 22.30	
 11.900	-90.000	  1.16959	  0.59551	  0.60844	  0.19418	  1.07931	 -0.05075	  1.25811	707.94202	 22.30	
 11.892	-98.155	  1.16314	  0.53101	  0.66714	  0.19479	  1.06831	 -0.05102	  1.25267	707.94202	 22.30	
 11.893	-106.346	  1.16114	  0.47472	  0.72686	  0.20540	  1.05169	 -0.05029	  1.24930	708.06702	 22.30	
 11.903	-114.597	  1.16771	  0.42320	  0.79376	  0.22452	  1.03458	 -0.04817	  1.25759	707.90302	 22.30	
 11.897	-122.732	  1.16967	  0.37731	  0.85036	  0.24953	  1.00348	 -0.04398	  1.25869	707.93103	 22.30	
 11.894	-130.867	  1.16378	  0.32857	  0.90011	  0.27840	  0.95696	 -0.04296	  1.25263	707.90601	 22.30	
 11.902	-139.148	  1.16723	  0.29611	  0.94978	  0.31957	  0.91271	 -0.03884	  1.25540	707.97699	 22.30	
 11.909	-147.299	  1.16762	  0.26653	  0.98992	  0.36389	  0.86056	 -0.03593	  1.25293	708.00201	 22.30	
 11.889	-155.445	  1.16620	  0.24371	  1.02006	  0.41330	  0.80204	 -0.03716	  1.25037	707.99799	 22.30	
 11.890	-163.610	  1.16681	  0.22775	  1.04403	  0.46822	  0.74321	 -0.03414	  1.24935	707.89099	 22.30	
 11.899	-171.783	  1.17331	  0.21758	  1.06363	  0.52887	  0.68448	 -0.03399	  1.25377	707.94598	 22.30	
 11.900	180.000	  1.17483	  0.21917	  1.06727	  0.59193	  0.62477	 -0.03141	  1.25256	707.95099	 22.30	
 13.600	180.000	  1.15125	  0.14821	  1.11408	  0.57040	  0.60366	 -0.04043	  1.26015	708.01300	 22.30	
 13.608	-172.853	  1.14297	  0.14693	  1.10347	  0.50537	  0.65926	 -0.04176	  1.25405	707.92499	 22.30	
 13.611	-165.583	  1.14274	  0.15544	  1.09192	  0.44776	  0.72098	 -0.04434	  1.25667	707.96997	 22.30	
 13.601	-158.353	  1.14012	  0.16941	  1.06746	  0.38953	  0.78181	 -0.04543	  1.25530	707.96698	 22.30	
 13.609	-151.210	  1.13774	  0.18648	  1.03807	  0.33556	  0.83854	 -0.04822	  1.25480	708.03003	 22.30	
 13.611	-143.999	  1.13443	  0.21195	  0.99989	  0.28925	  0.89129	 -0.04908	  1.25300	708.00500	 22.30	
 13.601	-136.825	  1.13457	  0.24257	  0.95651	  0.24769	  0.94275	 -0.05032	  1.25497	707.91699	 22.30	
 13.596	-129.640	  1.13228	  0.28023	  0.90582	  0.21074	  0.98659	 -0.05136	  1.25188	707.96399	 22.30	
