FileType=PCF
NHL=14
Date=08/30/17	12:52:51
Facility=APL
Serial=16328-18
Customer=NASA
NP=6
Mach=0.250000
Calibration=1:1
CalPts=490
TstPts=95
PortNumbering=AP Standard
Units=Torr C m/s kg/m^3 deg mm 
Theta[deg]	Phi[deg]	P1[Torr]	P2[Torr]	P3[Torr]	P4[Torr]	P5[Torr]	P6[Torr]	Pt[Torr]	Ps[Abs,Torr]	Ts[C]	
  0.000	  0.000	 30.17388	 15.53591	 14.97882	 15.28542	 15.43672	  0.38511	 30.12767	704.63202	 23.30	
  1.691	128.401	 30.21601	 14.56286	 15.94309	 16.54964	 14.15861	  0.36992	 30.17411	706.36902	 23.30	
  1.692	 77.194	 30.20876	 15.87827	 14.57188	 16.86539	 13.83570	  0.36669	 30.15767	706.29602	 23.30	
  1.699	 26.182	 30.15057	 16.92317	 13.48892	 15.94876	 14.65014	  0.37085	 30.11173	704.78003	 23.30	
  1.699	-26.182	 30.16205	 16.92763	 13.52010	 14.52366	 16.09611	  0.35835	 30.12007	704.79303	 23.30	
  1.692	-77.194	 30.19057	 15.85254	 14.61379	 13.71977	 16.96759	  0.34225	 30.14772	704.90100	 23.30	
  1.691	-128.401	 30.20947	 14.52319	 15.97922	 14.03463	 16.68042	  0.35561	 30.15824	706.15601	 23.30	
  1.700	180.000	 30.18050	 13.92099	 16.58417	 15.25535	 15.40469	  0.35721	 30.12392	704.96503	 23.30	
  3.400	180.000	 30.15536	 12.23995	 18.12299	 15.14538	 15.30869	  0.30137	 30.14146	706.24597	 23.30	
  3.388	-152.325	 30.16414	 12.61044	 17.75430	 13.67778	 16.79766	  0.30005	 30.14808	705.91901	 23.30	
  3.397	-124.529	 30.10330	 13.56091	 16.67863	 12.53403	 17.93476	  0.28532	 30.09818	704.71997	 23.30	
  3.399	-96.763	 30.12384	 14.96860	 15.22403	 12.01331	 18.50049	  0.27659	 30.12355	704.70898	 23.30	
  3.394	-69.283	 30.11475	 16.47103	 13.74190	 12.19562	 18.27825	  0.26837	 30.12629	705.73102	 23.30	
  3.400	-41.398	 30.07502	 17.77999	 12.45598	 13.00511	 17.38218	  0.28839	 30.10972	704.76202	 23.30	
  3.401	-14.021	 30.08781	 18.52575	 11.76430	 14.29735	 16.03702	  0.29842	 30.11980	706.41699	 23.30	
  3.401	 14.021	 30.10481	 18.53660	 11.73261	 15.88112	 14.47223	  0.31669	 30.14480	704.81598	 23.30	
  3.400	 41.398	 30.10581	 17.82029	 12.38778	 17.26501	 13.15032	  0.32713	 30.13915	704.93103	 23.30	
  3.394	 69.283	 30.13651	 16.55445	 13.63686	 18.16220	 12.34888	  0.32232	 30.17019	704.79303	 23.30	
  3.399	 96.763	 30.13335	 15.03930	 15.14938	 18.35568	 12.15258	  0.32226	 30.14385	704.80701	 23.30	
  3.397	124.529	 30.14690	 13.62299	 16.63138	 17.83505	 12.68989	  0.31929	 30.14695	704.62500	 23.30	
  3.388	152.325	 30.13246	 12.62421	 17.69060	 16.63370	 13.81123	  0.31605	 30.11636	704.75098	 23.30	
  5.099	161.165	 30.04431	 10.81526	 19.27593	 16.52007	 13.57120	  0.21330	 30.14664	704.64203	 23.30	
  5.109	142.013	 30.01554	 11.51699	 18.44840	 17.93798	 12.19434	  0.13122	 30.12453	706.31500	 23.30	
  5.095	123.033	 30.00570	 12.62669	 17.23232	 19.01515	 11.22578	  0.13529	 30.12213	706.35498	 23.30	
  5.105	104.191	 29.98507	 14.04764	 15.72909	 19.68389	 10.59965	  0.22205	 30.13147	704.77600	 23.40	
  5.093	 85.207	 29.94603	 15.59751	 14.13157	 19.76881	 10.48213	  0.12361	 30.11080	704.73499	 23.40	
  5.104	 66.290	 29.92356	 17.12613	 12.60317	 19.35268	 10.81135	  0.17623	 30.11248	704.73901	 23.40	
  5.094	 47.331	 29.92305	 18.45461	 11.36559	 18.45156	 11.59759	  0.13794	 30.12357	704.78003	 23.40	
  5.089	 28.397	 29.87962	 19.44634	 10.43823	 17.14582	 12.73834	  0.13604	 30.08393	704.72601	 23.40	
  5.096	  9.576	 29.89364	 20.00251	  9.98524	 15.66988	 14.18418	  0.20504	 30.11385	706.39099	 23.40	
  5.096	 -9.576	 29.91579	 20.01140	 10.02714	 14.04965	 15.82860	  0.20028	 30.14116	705.33398	 23.30	
  5.089	-28.397	 29.87990	 19.44323	 10.47484	 12.59753	 17.29719	  0.05943	 30.10203	705.47998	 23.30	
  5.094	-47.331	 29.92257	 18.43640	 11.41371	 11.42676	 18.60912	  0.10387	 30.11321	704.63501	 23.30	
  5.104	-66.290	 29.89438	 17.01215	 12.70355	 10.61332	 19.50248	  0.03361	 30.07450	704.68701	 23.30	
  5.093	-85.207	 29.95643	 15.49455	 14.22921	 10.29180	 19.99390	  0.15046	 30.11829	706.44800	 23.30	
  5.105	-104.191	 29.96939	 13.94255	 15.81133	 10.40168	 19.86418	  0.16492	 30.11764	705.67200	 23.30	
  5.095	-123.033	 29.95110	 12.55192	 17.27512	 10.97594	 19.14137	  0.09189	 30.07993	705.60999	 23.30	
  5.109	-142.013	 29.99147	 11.45482	 18.51634	 12.01033	 18.07172	  0.18766	 30.11032	704.65198	 23.30	
  5.099	-161.165	 29.98876	 10.74473	 19.28817	 13.38928	 16.63091	  0.16295	 30.09389	706.33600	 23.40	
  5.100	180.000	 30.00244	 10.50968	 19.56013	 14.90020	 15.10079	  0.16104	 30.10151	705.18799	 23.40	
  6.800	180.000	 29.75689	  8.73323	 20.95499	 14.61845	 14.78778	 -0.04976	 30.09622	704.90601	 23.40	
  6.796	-166.229	 29.76259	  8.86183	 20.79168	 13.09796	 16.33422	 -0.05151	 30.10949	706.46198	 23.40	
  6.808	-152.311	 29.72091	  9.31812	 20.20269	 11.65351	 17.78911	 -0.06716	 30.07489	705.63800	 23.40	
  6.795	-138.383	 29.70483	 10.12587	 19.27405	 10.42074	 19.11644	 -0.08165	 30.07709	706.45001	 23.40	
  6.792	-124.591	 29.69028	 11.17463	 18.05078	  9.43331	 20.20384	 -0.10890	 30.08335	704.97900	 23.40	
  6.787	-110.754	 29.68074	 12.51387	 16.62610	  8.81683	 20.99735	 -0.14235	 30.08233	705.61700	 23.40	
  6.800	-96.985	 29.67111	 13.98214	 15.11865	  8.50468	 21.37721	 -0.16859	 30.09299	705.30798	 23.40	
  6.800	-83.015	 29.66284	 15.53224	 13.56744	  8.51111	 21.39030	 -0.19941	 30.09789	706.46698	 23.40	
  6.787	-69.246	 29.62297	 17.02933	 12.07216	  8.78703	 20.95063	 -0.18009	 30.07922	705.81000	 23.40	
  6.792	-55.409	 29.59012	 18.44408	 10.71848	  9.39886	 20.16634	 -0.17375	 30.06991	704.72900	 23.40	
  6.795	-41.617	 29.61511	 19.71227	  9.61660	 10.32747	 19.08756	 -0.15556	 30.11115	704.70599	 23.40	
  6.808	-27.689	 29.57333	 20.65232	  8.77191	 11.57082	 17.70802	 -0.13265	 30.08849	704.80402	 23.40	
  6.796	-13.771	 29.58724	 21.23952	  8.31772	 13.00033	 16.24293	 -0.10542	 30.10009	704.80103	 23.40	
  6.800	  0.000	 29.55362	 21.42248	  8.13027	 14.50684	 14.67092	 -0.08644	 30.07361	704.62097	 23.30	
  6.796	 13.771	 29.58410	 21.25383	  8.27635	 16.06808	 13.14529	 -0.07345	 30.10123	704.62402	 23.30	
  6.808	 27.689	 29.59974	 20.71104	  8.72046	 17.55802	 11.73904	 -0.05076	 30.12010	704.75403	 23.30	
  6.795	 41.617	 29.59631	 19.78511	  9.48221	 18.87922	 10.50932	 -0.03866	 30.11139	704.66998	 23.30	
  6.792	 55.409	 29.62175	 18.57236	 10.58836	 19.97432	  9.57963	 -0.03194	 30.11606	704.78497	 23.30	
  6.787	 69.246	 29.62517	 17.15679	 11.91177	 20.74171	  8.96614	 -0.03740	 30.10153	704.96802	 23.30	
  6.800	 83.015	 29.59353	 15.63917	 13.35349	 21.11969	  8.65730	 -0.05237	 30.04485	706.37500	 23.30	
  6.800	 96.985	 29.66519	 14.14078	 14.94076	 21.17325	  8.68533	 -0.06716	 30.09538	704.75403	 23.30	
  6.787	110.754	 29.67113	 12.67308	 16.45987	 20.77430	  9.01831	 -0.06331	 30.07015	704.84601	 23.30	
  6.792	124.591	 29.69703	 11.34368	 17.90851	 20.03935	  9.67468	 -0.06624	 30.07479	704.82898	 23.30	
  6.795	138.383	 29.74040	 10.25472	 19.16154	 18.97652	 10.63952	 -0.05506	 30.09417	704.74902	 23.30	
  6.808	152.311	 29.73725	  9.39198	 20.12794	 17.64947	 11.81691	 -0.03495	 30.08462	705.27100	 23.40	
  6.796	166.229	 29.71094	  8.89738	 20.70527	 16.13635	 13.23623	 -0.04807	 30.05231	706.16400	 23.40	
  8.491	168.704	 29.39285	  7.05083	 22.11432	 15.83930	 12.83705	 -0.26499	 30.08942	704.89502	 23.40	
  8.502	157.493	 29.42182	  7.43822	 21.65490	 17.38175	 11.38163	 -0.26490	 30.12109	704.95398	 23.40	
  8.494	146.194	 29.34369	  8.04913	 20.77813	 18.77582	 10.02165	 -0.25761	 30.05318	704.81500	 23.40	
  8.495	135.039	 29.34652	  9.00521	 19.69928	 20.07381	  8.89537	 -0.28081	 30.07404	704.80798	 23.40	
  8.487	123.723	 29.31623	 10.14782	 18.34834	 21.11170	  8.02152	 -0.30010	 30.05664	704.70898	 23.40	
  8.492	112.575	 29.28631	 11.50133	 16.87110	 21.87555	  7.36323	 -0.29622	 30.04007	704.69800	 23.40	
  8.510	101.220	 29.25359	 12.97664	 15.31671	 22.34908	  6.95168	 -0.31768	 30.05134	704.83899	 23.40	
  8.500	 90.000	 29.27116	 14.52741	 13.77392	 22.49667	  6.85708	 -0.30342	 30.08565	704.82098	 23.40	
  8.510	 78.780	 29.23197	 16.06738	 12.21774	 22.32541	  6.94111	 -0.26279	 30.07527	706.31799	 23.40	
  8.492	 67.425	 29.18016	 17.59013	 10.73413	 21.78406	  7.29988	 -0.23196	 30.04135	704.79901	 23.40	
  8.487	 56.277	 29.19292	 19.02986	  9.42131	 21.01051	  7.94868	 -0.21985	 30.08744	705.19897	 23.40	
  8.495	 44.961	 29.16890	 20.32235	  8.24403	 19.93968	  8.82167	 -0.23358	 30.08071	704.77301	 23.40	
  8.494	 33.806	 29.12759	 21.33120	  7.35106	 18.63466	  9.93522	 -0.24942	 30.06008	704.77698	 23.40	
  8.502	 22.507	 29.13879	 22.12164	  6.75616	 17.22197	 11.26248	 -0.28555	 30.07988	706.36102	 23.40	
  8.491	 11.296	 29.17919	 22.61286	  6.39926	 15.72796	 12.73929	 -0.30826	 30.12648	704.71198	 23.40	
  8.500	  0.000	 29.12459	 22.72690	  6.27173	 14.11673	 14.28447	 -0.32400	 30.05959	704.76001	 23.40	
  8.491	-11.296	 29.12992	 22.55349	  6.41524	 12.56259	 15.88493	 -0.32468	 30.06459	704.72498	 23.40	
  8.502	-22.507	 29.12171	 22.06488	  6.79754	 11.10065	 17.38897	 -0.33991	 30.04782	705.67499	 23.40	
  8.494	-33.806	 29.16449	 21.29451	  7.43976	  9.73530	 18.86701	 -0.37457	 30.08063	706.40601	 23.40	
  8.495	-44.961	 29.14979	 20.22350	  8.35450	  8.58326	 20.14974	 -0.40210	 30.06534	704.78998	 23.40	
  8.487	-56.277	 29.18486	 18.91574	  9.54156	  7.74055	 21.20528	 -0.42436	 30.05510	704.67200	 23.40	
  8.492	-67.425	 29.21097	 17.46484	 10.91192	  7.13854	 22.00459	 -0.43882	 30.06476	706.40302	 23.40	
  8.510	-78.780	 29.20450	 15.92166	 12.38846	  6.75656	 22.50046	 -0.45760	 30.03422	706.32098	 23.40	
  8.500	-90.000	 29.25063	 14.40521	 13.94420	  6.67091	 22.68386	 -0.44336	 30.05767	705.73102	 23.40	
  8.510	-101.220	 29.25123	 12.85117	 15.49660	  6.76793	 22.52293	 -0.40625	 30.05317	704.67297	 23.40	
  8.492	-112.575	 29.26642	 11.34560	 17.05504	  7.16816	 22.02305	 -0.36419	 30.04023	705.71698	 23.40	
  8.487	-123.723	 29.32524	 10.03796	 18.51163	  7.80422	 21.27036	 -0.33264	 30.07953	704.78003	 23.40	
  8.495	-135.039	 29.30978	  8.86179	 19.80527	  8.68410	 20.21605	 -0.31530	 30.05754	705.84302	 23.40	
  8.494	-146.194	 29.35787	  8.00884	 20.88607	  9.84735	 18.95886	 -0.30517	 30.08879	704.71399	 23.40	
  8.502	-157.493	 29.34154	  7.36154	 21.65525	 11.21069	 17.48520	 -0.30158	 30.05244	704.78497	 23.40	
  8.491	-168.704	 29.34476	  7.01532	 22.11482	 12.68367	 15.96826	 -0.29292	 30.05047	704.71802	 23.40	
  8.500	180.000	 29.37838	  6.91106	 22.29129	 14.24504	 14.41079	 -0.28512	 30.07984	704.90900	 23.40	
 10.200	180.000	 28.91911	  5.06640	 23.55012	 13.82144	 13.95845	 -0.53278	 30.08612	704.70099	 23.40	
 10.191	-170.497	 28.87323	  5.13945	 23.39714	 12.22428	 15.54211	 -0.53692	 30.05672	704.78400	 23.40	
 10.210	-161.034	 28.88033	  5.44856	 23.01689	 10.74012	 17.10136	 -0.56672	 30.07444	704.73700	 23.40	
 10.194	-151.526	 28.88227	  5.96295	 22.36190	  9.32570	 18.62099	 -0.55112	 30.08899	704.77002	 23.40	
 10.190	-142.105	 28.89093	  6.68792	 21.46850	  8.02189	 20.04018	 -0.52423	 30.12982	704.84198	 23.40	
 10.215	-132.646	 28.79406	  7.57786	 20.28491	  6.89265	 21.22628	 -0.52531	 30.05407	704.87000	 23.40	
 10.203	-123.092	 28.79580	  8.76669	 18.93482	  6.03312	 22.28359	 -0.56845	 30.06429	704.85999	 23.40	
 10.192	-113.678	 28.77615	 10.11108	 17.46715	  5.43224	 23.07630	 -0.61971	 30.06172	704.66699	 23.40	
 10.208	-104.249	 28.76620	 11.55286	 15.92292	  4.96699	 23.64151	 -0.66935	 30.07347	704.71698	 23.40	
 10.210	-94.801	 28.78002	 13.11930	 14.35029	  4.73617	 23.94395	 -0.70623	 30.10715	704.75403	 23.40	
 10.210	-85.199	 28.72522	 14.71419	 12.70898	  4.73874	 23.91521	 -0.74223	 30.07745	704.73901	 23.40	
 10.208	-75.751	 28.68866	 16.24415	 11.14531	  4.94660	 23.61582	 -0.74804	 30.06016	704.78003	 23.40	
 10.192	-66.322	 28.68213	 17.79601	  9.73433	  5.38220	 23.05288	 -0.73468	 30.06480	704.68903	 23.40	
 10.203	-56.908	 28.63253	 19.25695	  8.35818	  5.96629	 22.24858	 -0.70385	 30.05214	704.78003	 23.40	
 10.215	-47.354	 28.60835	 20.61739	  7.11089	  6.77721	 21.19694	 -0.66667	 30.05297	704.71997	 23.40	
 10.190	-37.895	 28.64199	 21.79514	  6.14857	  7.87206	 19.95617	 -0.61453	 30.08754	704.81299	 23.40	
 10.194	-28.474	 28.64430	 22.72862	  5.40355	  9.18458	 18.55106	 -0.59025	 30.09190	704.64099	 23.40	
 10.210	-18.966	 28.61212	 23.40718	  4.83931	 10.57553	 17.01790	 -0.57424	 30.07326	704.71997	 23.40	
 10.191	 -9.503	 28.56450	 23.78628	  4.49068	 12.05470	 15.42334	 -0.57460	 30.03923	704.74500	 23.40	
 10.200	  0.000	 28.55989	 23.93572	  4.35950	 13.61990	 13.82283	 -0.55872	 30.03222	704.70898	 23.40	
 10.191	  9.503	 28.59557	 23.83664	  4.45844	 15.24977	 12.23582	 -0.55434	 30.07026	704.82098	 23.40	
 10.210	 18.966	 28.58413	 23.44929	  4.74819	 16.78710	 10.75815	 -0.55906	 30.07023	704.70398	 23.40	
 10.194	 28.474	 28.59689	 22.77784	  5.28476	 18.29639	  9.36882	 -0.52179	 30.05740	704.61902	 23.40	
 10.190	 37.895	 28.59066	 21.87173	  5.99381	 19.69360	  8.09698	 -0.49873	 30.04619	704.76801	 23.40	
 10.215	 47.354	 28.61211	 20.77362	  6.94962	 20.97333	  7.01094	 -0.46534	 30.07255	704.63599	 23.40	
 10.203	 56.908	 28.66901	 19.46983	  8.16289	 22.03738	  6.17593	 -0.45745	 30.09306	704.67798	 23.40	
 10.192	 66.322	 28.67310	 18.00852	  9.50072	 22.83006	  5.54113	 -0.47740	 30.06985	704.72803	 23.40	
 10.208	 75.751	 28.66052	 16.44801	 10.88632	 23.37910	  5.08438	 -0.51627	 30.03014	704.76599	 23.40	
 10.210	 85.199	 28.73844	 14.91990	 12.47748	 23.72228	  4.90080	 -0.56097	 30.07849	704.73499	 23.40	
 10.210	 94.801	 28.74078	 13.31329	 14.08208	 23.73170	  4.91358	 -0.59041	 30.04923	704.78003	 23.40	
 10.208	104.249	 28.79641	 11.76091	 15.63741	 23.48583	  5.16627	 -0.60404	 30.08265	704.74200	 23.40	
 10.192	113.678	 28.85163	 10.31730	 17.22731	 22.94952	  5.66566	 -0.58506	 30.09879	704.63599	 23.40	
 10.203	123.092	 28.85399	  8.97970	 18.71811	 22.17345	  6.26270	 -0.56851	 30.08139	704.75702	 23.40	
 10.215	132.646	 28.86304	  7.77225	 20.11013	 21.15362	  7.09847	 -0.54189	 30.07893	705.26398	 23.40	
 10.190	142.105	 28.85533	  6.77492	 21.27483	 19.88111	  8.19771	 -0.50908	 30.04926	704.63599	 23.40	
 10.194	151.526	 28.88928	  6.03420	 22.24259	 18.48668	  9.46910	 -0.50519	 30.05863	704.70599	 23.40	
 10.210	161.034	 28.90941	  5.50540	 22.97909	 16.99159	 10.86787	 -0.49704	 30.08405	704.59100	 23.40	
 10.191	170.497	 28.90907	  5.18908	 23.37451	 15.43187	 12.35914	 -0.51353	 30.07368	704.65601	 23.40	
 11.899	171.783	 28.29024	  3.31135	 24.53864	 14.94204	 11.80376	 -0.76558	 30.03803	704.73499	 23.40	
 11.890	163.610	 28.32474	  3.59813	 24.20216	 16.53353	 10.33054	 -0.73984	 30.07405	704.84601	 23.40	
 11.889	155.445	 28.28912	  4.05254	 23.55362	 18.05466	  8.90047	 -0.73471	 30.04070	704.81897	 23.40	
 11.909	147.299	 28.29526	  4.64213	 22.74238	 19.54849	  7.53315	 -0.73848	 30.07043	704.73401	 23.40	
 11.902	139.148	 28.26711	  5.50465	 21.67115	 20.88154	  6.34166	 -0.73748	 30.05854	704.74298	 23.40	
 11.894	130.867	 28.29318	  6.57107	 20.43261	 22.08372	  5.35223	 -0.77722	 30.08871	704.78400	 23.40	
 11.897	122.732	 28.26191	  7.74128	 19.04293	 23.07324	  4.58771	 -0.81941	 30.07570	704.75201	 23.40	
 11.903	114.597	 28.23367	  9.02752	 17.54947	 23.87312	  3.93974	 -0.85594	 30.06842	704.83801	 23.40	
 11.893	106.346	 28.19698	 10.47313	 15.93822	 24.43382	  3.44045	 -0.87235	 30.06332	704.78802	 23.40	
 11.892	 98.155	 28.16470	 12.03219	 14.30470	 24.77246	  3.16451	 -0.86617	 30.05623	704.67999	 23.40	
 11.900	 90.000	 28.14877	 13.62773	 12.76120	 24.89469	  3.04023	 -0.84787	 30.07846	704.82898	 23.40	
 11.892	 81.845	 28.09204	 15.20362	 11.17289	 24.70918	  3.15741	 -0.80020	 30.04614	704.88397	 23.40	
 11.893	 73.654	 28.06220	 16.74721	  9.65284	 24.32233	  3.41239	 -0.74466	 30.03137	704.69800	 23.40	
 11.903	 65.403	 28.07847	 18.32779	  8.23755	 23.75226	  3.81146	 -0.70080	 30.09626	705.62299	 23.40	
 11.897	 57.268	 28.03189	 19.76705	  6.92163	 22.88823	  4.48675	 -0.66576	 30.07382	704.76001	 23.40	
 11.894	 49.133	 27.99796	 21.09367	  5.75975	 21.84086	  5.32358	 -0.66315	 30.05587	704.79102	 23.40	
 11.902	 40.852	 27.97706	 22.28748	  4.72518	 20.63519	  6.31662	 -0.71340	 30.05520	704.65900	 23.40	
 11.909	 32.701	 27.95771	 23.28046	  3.88733	 19.29817	  7.46798	 -0.75823	 30.06669	704.78497	 23.40	
 11.889	 24.555	 27.94820	 24.04358	  3.29795	 17.81180	  8.80471	 -0.79387	 30.04909	704.75403	 23.40	
 11.890	 16.390	 27.94162	 24.60490	  2.88319	 16.28578	 10.21866	 -0.80705	 30.04498	704.66602	 23.40	
 11.899	  8.217	 27.97169	 24.99037	  2.57365	 14.73857	 11.71594	 -0.80313	 30.08590	704.78497	 23.40	
 11.900	  0.000	 27.93749	 25.06947	  2.48034	 13.08735	 13.28935	 -0.79600	 30.05144	704.79303	 23.40	
 11.899	 -8.217	 27.93544	 24.94106	  2.59189	 11.50786	 14.91758	 -0.81287	 30.04540	704.84399	 23.40	
 11.890	-16.390	 27.94680	 24.56983	  2.89467	 10.00881	 16.50185	 -0.81486	 30.04507	704.79102	 23.40	
 11.889	-24.555	 27.95780	 23.98329	  3.38380	  8.59423	 18.05096	 -0.82429	 30.04794	704.69702	 23.40	
 11.909	-32.701	 27.97525	 23.18716	  4.02674	  7.28237	 19.52212	 -0.83433	 30.05273	704.81598	 23.40	
 11.902	-40.852	 27.99081	 22.17012	  4.84609	  6.05748	 20.87577	 -0.85405	 30.06185	704.68103	 23.40	
 11.894	-49.133	 27.99505	 20.92957	  5.87838	  5.05502	 22.10199	 -0.89743	 30.05570	704.67200	 23.40	
 11.897	-57.268	 28.01855	 19.57388	  7.11703	  4.27251	 23.13084	 -0.94479	 30.05161	704.77698	 23.40	
 11.903	-65.403	 28.04102	 18.10008	  8.43107	  3.65814	 23.95275	 -0.97574	 30.06003	704.73401	 23.40	
 11.893	-73.654	 28.07934	 16.52839	  9.87363	  3.24956	 24.53981	 -0.97846	 30.06076	704.90802	 23.40	
 11.892	-81.845	 28.14724	 14.99686	 11.42057	  2.98833	 24.93239	 -0.97734	 30.10094	704.89398	 23.50	
 11.900	-90.000	 28.13430	 13.39108	 12.99991	  2.86881	 25.03907	 -0.95773	 30.07862	704.75897	 23.50	
 11.892	-98.155	 28.15084	 11.80632	 14.62266	  2.99498	 24.90593	 -0.93563	 30.05432	704.80499	 23.50	
 11.893	-106.346	 28.19854	 10.28617	 16.23979	  3.28245	 24.59174	 -0.88589	 30.08979	704.97900	 23.50	
 11.903	-114.597	 28.19012	  8.83892	 17.80073	  3.70530	 24.00488	 -0.83803	 30.07837	704.87701	 23.40	
 11.897	-122.732	 28.22138	  7.53977	 19.28904	  4.34008	 23.20748	 -0.78118	 30.09728	704.98499	 23.50	
 11.894	-130.867	 28.21648	  6.32499	 20.63714	  5.12672	 22.17009	 -0.74085	 30.08179	704.87000	 23.40	
 11.902	-139.148	 28.21070	  5.33114	 21.83053	  6.17728	 20.93249	 -0.74109	 30.04322	704.99298	 23.40	
 11.909	-147.299	 28.30144	  4.58347	 22.89300	  7.40237	 19.64496	 -0.79248	 30.11838	704.91400	 23.40	
 11.889	-155.445	 28.28547	  3.98278	 23.65475	  8.77842	 18.13931	 -0.81839	 30.07488	704.86401	 23.40	
 11.890	-163.610	 28.26091	  3.53073	 24.20451	 10.20154	 16.59332	 -0.81126	 30.03260	704.84399	 23.40	
 11.899	-171.783	 28.28739	  3.25938	 24.57771	 11.71720	 15.02904	 -0.79486	 30.04471	704.88300	 23.50	
 11.900	180.000	 28.32393	  3.18973	 24.70021	 13.31559	 13.43181	 -0.78860	 30.07433	704.90302	 23.40	
 13.600	180.000	 27.59278	  1.29765	 25.72654	 12.73460	 12.80818	 -1.01883	 30.03659	704.83899	 23.50	
 13.608	-172.853	 27.60851	  1.36328	 25.66778	 11.16845	 14.41432	 -1.05129	 30.07155	704.89203	 23.50	
 13.611	-165.583	 27.58762	  1.59559	 25.35895	  9.62031	 16.02432	 -1.06966	 30.06475	704.92200	 23.50	
 13.601	-158.353	 27.55397	  1.99173	 24.81836	  8.14035	 17.57245	 -1.06566	 30.03864	704.94000	 23.50	
 13.609	-151.210	 27.53525	  2.50776	 24.10932	  6.81772	 19.07401	 -1.05124	 30.03827	704.79303	 23.50	
 13.611	-143.999	 27.53018	  3.22499	 23.22471	  5.52152	 20.49733	 -0.98773	 30.06346	704.84698	 23.50	
 13.601	-136.825	 27.53068	  4.02292	 22.15670	  4.35554	 21.83420	 -0.92555	 30.09282	704.86902	 23.50	
 13.596	-129.640	 27.47183	  4.99175	 20.88527	  3.36405	 22.98595	 -0.93002	 30.05375	704.93103	 23.50	
