FileType=PCF
NHL=14
Date=08/30/17	10:30:27
Facility=APL
Serial=16328-18
Customer=NASA
NP=6
Mach=0.100000
Calibration=1:1
CalPts=490
TstPts=95
PortNumbering=AP Standard
Units=Torr C m/s kg/m^3 deg mm 
Theta[deg]	Phi[deg]	P1[Torr]	P2[Torr]	P3[Torr]	P4[Torr]	P5[Torr]	P6[Torr]	Pt[Torr]	Ps[Abs,Torr]	Ts[C]	
  0.000	  0.000	  4.97086	  2.60480	  2.50563	  2.55377	  2.59665	  0.03972	  4.96737	706.36298	 24.10	
  1.691	128.401	  4.94954	  2.43807	  2.62489	  2.69953	  2.40600	  0.03651	  4.94448	706.28003	 24.10	
  1.692	 77.194	  4.96383	  2.62163	  2.44656	  2.76720	  2.35666	  0.03975	  4.95871	706.48798	 24.10	
  1.699	 26.182	  4.95338	  2.79317	  2.27456	  2.62247	  2.47268	  0.03193	  4.95150	706.47400	 24.10	
  1.699	-26.182	  4.96666	  2.79307	  2.28174	  2.41796	  2.68305	  0.03061	  4.96409	706.47699	 24.10	
  1.692	-77.194	  4.95375	  2.61353	  2.43232	  2.30633	  2.79747	  0.02615	  4.95305	706.42902	 24.10	
  1.691	-128.401	  4.95789	  2.43959	  2.62577	  2.36255	  2.75553	  0.02831	  4.95547	706.41901	 24.10	
  1.700	180.000	  4.94723	  2.35610	  2.72175	  2.53564	  2.57970	  0.04013	  4.94420	706.38599	 24.10	
  3.400	180.000	  4.96766	  2.08998	  2.97441	  2.50926	  2.55021	  0.02041	  4.96844	706.48102	 24.10	
  3.388	-152.325	  4.95631	  2.12996	  2.90971	  2.27943	  2.78064	  0.01685	  4.96044	706.33197	 24.10	
  3.397	-124.529	  4.95841	  2.26860	  2.74257	  2.11109	  2.97054	  0.01624	  4.96139	706.23401	 24.10	
  3.399	-96.763	  4.93317	  2.47159	  2.49717	  2.01917	  3.04639	  0.01005	  4.94281	706.33301	 24.00	
  3.394	-69.283	  4.94255	  2.71959	  2.26735	  2.04740	  3.02040	  0.00974	  4.95237	706.36102	 24.00	
  3.400	-41.398	  4.94479	  2.93284	  2.08012	  2.17023	  2.87642	  0.01082	  4.95586	706.27399	 24.00	
  3.401	-14.021	  4.94460	  3.05340	  1.97996	  2.36498	  2.66196	  0.01435	  4.95329	706.25403	 24.00	
  3.401	 14.021	  4.94336	  3.05737	  1.97887	  2.61074	  2.41428	  0.01769	  4.95202	706.48700	 24.00	
  3.400	 41.398	  4.95785	  2.94974	  2.08425	  2.83758	  2.22200	  0.02250	  4.96391	706.38599	 24.00	
  3.394	 69.283	  4.95142	  2.73622	  2.27009	  2.98348	  2.09786	  0.03210	  4.95761	706.33197	 24.00	
  3.399	 96.763	  4.95713	  2.50282	  2.50323	  3.01772	  2.08090	  0.02700	  4.95955	706.23700	 24.00	
  3.397	124.529	  4.96251	  2.29091	  2.73636	  2.93109	  2.16105	  0.02414	  4.96075	706.21399	 24.00	
  3.388	152.325	  4.95876	  2.14615	  2.90299	  2.74189	  2.32002	  0.02227	  4.95782	706.22198	 24.00	
  5.099	161.165	  4.93665	  1.83869	  3.16947	  2.72801	  2.26457	  0.00626	  4.95608	706.24500	 24.00	
  5.109	142.013	  4.93105	  1.94941	  3.03322	  2.95518	  2.05219	  0.00685	  4.94763	706.27399	 24.00	
  5.095	123.033	  4.93978	  2.12951	  2.83897	  3.13775	  1.90321	  0.00799	  4.95617	706.23901	 24.00	
  5.105	104.191	  4.92800	  2.34570	  2.59462	  3.23849	  1.81033	  0.00792	  4.94919	706.24500	 24.00	
  5.093	 85.207	  4.93892	  2.60077	  2.34817	  3.26526	  1.79675	  0.00930	  4.96332	706.35498	 24.00	
  5.104	 66.290	  4.92844	  2.84556	  2.10734	  3.19041	  1.84509	  0.01148	  4.95661	706.18103	 24.00	
  5.094	 47.331	  4.92676	  3.06554	  1.90712	  3.04104	  1.96854	  0.00838	  4.95904	706.26599	 24.00	
  5.089	 28.397	  4.93023	  3.23032	  1.76466	  2.83474	  2.15254	  0.00423	  4.96448	706.29102	 24.00	
  5.096	  9.576	  4.91367	  3.30634	  1.68728	  2.58165	  2.37442	 -0.00160	  4.95209	706.26001	 24.00	
  5.096	 -9.576	  4.91382	  3.30243	  1.68818	  2.32326	  2.63198	 -0.00508	  4.95226	706.35498	 24.00	
  5.089	-28.397	  4.91629	  3.21132	  1.76406	  2.09789	  2.87549	 -0.00879	  4.95524	706.33301	 24.00	
  5.094	-47.331	  4.90744	  3.03797	  1.90420	  1.90904	  3.07848	 -0.01199	  4.94458	706.38300	 23.90	
  5.104	-66.290	  4.92077	  2.82314	  2.10711	  1.78323	  3.23882	 -0.01563	  4.95837	706.24298	 23.90	
  5.093	-85.207	  4.91843	  2.56499	  2.34700	  1.73081	  3.30315	 -0.01428	  4.95130	706.25403	 23.90	
  5.105	-104.191	  4.91680	  2.31131	  2.60262	  1.74910	  3.27920	 -0.00982	  4.94991	706.28802	 23.90	
  5.095	-123.033	  4.93236	  2.10240	  2.84740	  1.85119	  3.17676	 -0.00621	  4.95948	706.35602	 23.90	
  5.109	-142.013	  4.93642	  1.92830	  3.04890	  2.01231	  2.99744	 -0.00292	  4.96216	706.33801	 23.90	
  5.099	-161.165	  4.94103	  1.82528	  3.17944	  2.23059	  2.76400	  0.00099	  4.96175	706.29901	 23.90	
  5.100	180.000	  4.93820	  1.79614	  3.21741	  2.47296	  2.51129	  0.00558	  4.95453	706.37201	 23.90	
  6.800	180.000	  4.90073	  1.49930	  3.45573	  2.43007	  2.46763	 -0.02095	  4.95517	706.44202	 23.90	
  6.796	-166.229	  4.89584	  1.51765	  3.42512	  2.18396	  2.71197	 -0.02799	  4.95302	706.44000	 23.90	
  6.808	-152.311	  4.89924	  1.59302	  3.33537	  1.96032	  2.95746	 -0.03074	  4.96067	706.28400	 23.90	
  6.795	-138.383	  4.89493	  1.71794	  3.18160	  1.75975	  3.17432	 -0.03004	  4.96080	706.26501	 23.90	
  6.792	-124.591	  4.89706	  1.89240	  2.98386	  1.60704	  3.35455	 -0.03534	  4.96544	706.22601	 23.90	
  6.787	-110.754	  4.87384	  2.09066	  2.73930	  1.49433	  3.46249	 -0.04314	  4.94603	706.30798	 23.90	
  6.800	-96.985	  4.88583	  2.33083	  2.50113	  1.44295	  3.53697	 -0.04430	  4.96515	706.21198	 23.90	
  6.800	-83.015	  4.87507	  2.58103	  2.24155	  1.43752	  3.53168	 -0.04763	  4.95617	706.25702	 23.90	
  6.787	-69.246	  4.87366	  2.82901	  2.00455	  1.48849	  3.46564	 -0.05100	  4.95787	706.33301	 23.90	
  6.792	-55.409	  4.86675	  3.05843	  1.79197	  1.58861	  3.33978	 -0.04836	  4.95355	706.31500	 23.90	
  6.795	-41.617	  4.86834	  3.25990	  1.61615	  1.73948	  3.16573	 -0.04020	  4.95750	706.45697	 23.90	
  6.808	-27.689	  4.87214	  3.42083	  1.48393	  1.93358	  2.94938	 -0.04082	  4.96441	706.34100	 23.90	
  6.796	-13.771	  4.86524	  3.51485	  1.40311	  2.15794	  2.70377	 -0.03698	  4.95406	706.44000	 23.90	
  6.800	  0.000	  4.85743	  3.54526	  1.37145	  2.39726	  2.45147	 -0.03158	  4.94509	706.29602	 23.90	
  6.796	 13.771	  4.86270	  3.51992	  1.39933	  2.65048	  2.20626	 -0.02620	  4.94834	706.29303	 23.90	
  6.808	 27.689	  4.86949	  3.43241	  1.47800	  2.89533	  1.98563	 -0.02410	  4.95083	706.44598	 23.90	
  6.795	 41.617	  4.88065	  3.28578	  1.61644	  3.11696	  1.79919	 -0.01609	  4.95894	706.31500	 23.90	
  6.792	 55.409	  4.88965	  3.09501	  1.79009	  3.30095	  1.65277	 -0.01353	  4.96421	706.26801	 23.90	
  6.787	 69.246	  4.88737	  2.86377	  2.00078	  3.42547	  1.54964	 -0.01573	  4.96089	706.31598	 23.90	
  6.800	 83.015	  4.88826	  2.61973	  2.23320	  3.49293	  1.49814	 -0.01606	  4.95494	706.29602	 23.90	
  6.800	 96.985	  4.90098	  2.37348	  2.49030	  3.50363	  1.50309	 -0.01593	  4.96476	706.36298	 23.90	
  6.787	110.754	  4.89868	  2.13639	  2.73442	  3.43576	  1.55682	 -0.01882	  4.95585	706.18298	 23.90	
  6.792	124.591	  4.89382	  1.92396	  2.96221	  3.31050	  1.65890	 -0.01685	  4.95148	706.34601	 23.90	
  6.795	138.383	  4.91462	  1.75604	  3.17502	  3.14764	  1.81475	 -0.01527	  4.96898	706.37201	 23.80	
  6.808	152.311	  4.90761	  1.61647	  3.32861	  2.92991	  2.00140	 -0.01944	  4.95907	706.39398	 23.90	
  6.796	166.229	  4.89928	  1.53069	  3.42126	  2.68196	  2.22142	 -0.01949	  4.95423	706.35199	 23.80	
  8.491	168.704	  4.83972	  1.22489	  3.64550	  2.63375	  2.15312	 -0.05662	  4.95035	706.30402	 23.80	
  8.502	157.493	  4.85264	  1.29475	  3.57301	  2.88918	  1.92556	 -0.05701	  4.96078	706.37799	 23.80	
  8.494	146.194	  4.84870	  1.40669	  3.43682	  3.12316	  1.71257	 -0.05182	  4.95459	706.22198	 23.90	
  8.495	135.039	  4.84106	  1.55279	  3.25836	  3.32644	  1.52834	 -0.05037	  4.95166	706.31500	 23.90	
  8.487	123.723	  4.84425	  1.74080	  3.04764	  3.50117	  1.38424	 -0.05596	  4.95578	706.23700	 23.90	
  8.492	112.575	  4.84522	  1.95466	  2.81309	  3.62808	  1.28167	 -0.05987	  4.96091	706.33002	 23.90	
  8.510	101.220	  4.83878	  2.19085	  2.55654	  3.70693	  1.21242	 -0.05630	  4.95972	706.36700	 23.80	
  8.500	 90.000	  4.82829	  2.43609	  2.29572	  3.72413	  1.18882	 -0.05036	  4.95300	706.31799	 23.90	
  8.510	 78.780	  4.84220	  2.70249	  2.05067	  3.70917	  1.21010	 -0.04970	  4.97249	706.49799	 23.90	
  8.492	 67.425	  4.83286	  2.94882	  1.81060	  3.61804	  1.27468	 -0.05036	  4.96777	706.38702	 23.80	
  8.487	 56.277	  4.79964	  3.16012	  1.59117	  3.46622	  1.36948	 -0.04473	  4.93786	706.41400	 23.80	
  8.495	 44.961	  4.80287	  3.37426	  1.40761	  3.29434	  1.51616	 -0.04613	  4.94853	706.27600	 23.80	
  8.494	 33.806	  4.81762	  3.55338	  1.26546	  3.09379	  1.70183	 -0.05898	  4.96507	706.36401	 23.80	
  8.502	 22.507	  4.80887	  3.67669	  1.15453	  2.85244	  1.90877	 -0.06362	  4.96204	706.33600	 23.80	
  8.491	 11.296	  4.80813	  3.75062	  1.09295	  2.60351	  2.14342	 -0.06213	  4.96490	706.21802	 23.80	
  8.500	  0.000	  4.79662	  3.76687	  1.06931	  2.33759	  2.39223	 -0.06429	  4.95237	706.24298	 23.80	
  8.491	-11.296	  4.80532	  3.74328	  1.09498	  2.09030	  2.65417	 -0.07426	  4.96407	706.23401	 23.80	
  8.502	-22.507	  4.79540	  3.65537	  1.15689	  1.85127	  2.89844	 -0.07424	  4.95374	706.27301	 23.80	
  8.494	-33.806	  4.80782	  3.52917	  1.27129	  1.64138	  3.14500	 -0.07392	  4.96631	706.26501	 23.80	
  8.495	-44.961	  4.80581	  3.35198	  1.41627	  1.45866	  3.35162	 -0.07983	  4.96603	706.41498	 23.80	
  8.487	-56.277	  4.79955	  3.13275	  1.60411	  1.31543	  3.51592	 -0.08729	  4.95396	706.39801	 23.80	
  8.492	-67.425	  4.79758	  2.89522	  1.81083	  1.20887	  3.63912	 -0.09241	  4.94833	706.43103	 23.80	
  8.510	-78.780	  4.80754	  2.64693	  2.05483	  1.14546	  3.72970	 -0.09004	  4.95698	706.42499	 23.80	
  8.500	-90.000	  4.82853	  2.39568	  2.31860	  1.13138	  3.76878	 -0.08777	  4.97404	706.32898	 23.80	
  8.510	-101.220	  4.82513	  2.14179	  2.57444	  1.15376	  3.73826	 -0.08575	  4.96471	706.32898	 23.80	
  8.492	-112.575	  4.83238	  1.90691	  2.83058	  1.22659	  3.65948	 -0.07898	  4.96694	706.42499	 23.80	
  8.487	-123.723	  4.82852	  1.69532	  3.06163	  1.33329	  3.52689	 -0.07026	  4.96052	706.40002	 23.80	
  8.495	-135.039	  4.82496	  1.51206	  3.26932	  1.47718	  3.35432	 -0.06374	  4.95279	706.36298	 23.80	
  8.494	-146.194	  4.82751	  1.37302	  3.44048	  1.66304	  3.14315	 -0.06502	  4.95064	706.32898	 23.80	
  8.502	-157.493	  4.83896	  1.27096	  3.57668	  1.88448	  2.91062	 -0.06759	  4.95613	706.28198	 23.80	
  8.491	-168.704	  4.82979	  1.21238	  3.64406	  2.11609	  2.65850	 -0.06269	  4.94426	706.26202	 23.80	
  8.500	180.000	  4.84748	  1.19871	  3.68151	  2.37556	  2.41034	 -0.05654	  4.95728	706.36298	 23.80	
 10.200	180.000	  4.78991	  0.89598	  3.90561	  2.31686	  2.34820	 -0.09582	  4.97764	706.35303	 23.80	
 10.191	-170.497	  4.76744	  0.90371	  3.86915	  2.05079	  2.59552	 -0.10130	  4.95685	706.36902	 23.80	
 10.210	-161.034	  4.76859	  0.95115	  3.80548	  1.80951	  2.85057	 -0.10827	  4.96543	706.36298	 23.80	
 10.194	-151.526	  4.76315	  1.03888	  3.69053	  1.57872	  3.09916	 -0.10648	  4.96192	706.23499	 23.80	
 10.190	-142.105	  4.75782	  1.15930	  3.53706	  1.37478	  3.32542	 -0.10067	  4.96198	706.27002	 23.80	
 10.215	-132.646	  4.75400	  1.30896	  3.35340	  1.19918	  3.52671	 -0.09966	  4.96443	706.36700	 23.80	
 10.203	-123.092	  4.74002	  1.49016	  3.12680	  1.05024	  3.68696	 -0.10591	  4.95276	706.23102	 23.80	
 10.192	-113.678	  4.74195	  1.70490	  2.88859	  0.94404	  3.82160	 -0.11703	  4.95756	706.33197	 23.80	
 10.208	-104.249	  4.72793	  1.93101	  2.62930	  0.86344	  3.90495	 -0.12605	  4.95210	706.27698	 23.80	
 10.210	-94.801	  4.72520	  2.17896	  2.37105	  0.82403	  3.95142	 -0.12916	  4.95195	706.28802	 23.80	
 10.210	-85.199	  4.71329	  2.43700	  2.10279	  0.81918	  3.94399	 -0.13238	  4.94333	706.39398	 23.80	
 10.208	-75.751	  4.72091	  2.70165	  1.85623	  0.85546	  3.90552	 -0.13359	  4.95319	706.26501	 23.80	
 10.192	-66.322	  4.73308	  2.96486	  1.62829	  0.93102	  3.82634	 -0.13317	  4.97354	706.15601	 23.80	
 10.203	-56.908	  4.70169	  3.18443	  1.40454	  1.03225	  3.67183	 -0.12958	  4.94377	706.24597	 23.80	
 10.215	-47.354	  4.72491	  3.42282	  1.21907	  1.17793	  3.51920	 -0.12116	  4.96801	706.21802	 23.80	
 10.190	-37.895	  4.71571	  3.60426	  1.06034	  1.34534	  3.31182	 -0.11152	  4.95849	706.34399	 23.80	
 10.194	-28.474	  4.70753	  3.75331	  0.93290	  1.54022	  3.08131	 -0.11359	  4.95217	706.27600	 23.80	
 10.210	-18.966	  4.70750	  3.87125	  0.83844	  1.76638	  2.83186	 -0.11274	  4.95091	706.25702	 23.80	
 10.191	 -9.503	  4.71168	  3.94293	  0.78637	  2.00993	  2.58056	 -0.10776	  4.95618	706.22900	 23.80	
 10.200	  0.000	  4.70316	  3.96218	  0.76289	  2.26000	  2.31754	 -0.10612	  4.94755	706.38702	 23.80	
 10.191	  9.503	  4.71643	  3.95385	  0.78223	  2.52702	  2.06717	 -0.10037	  4.96024	706.31500	 23.80	
 10.210	 18.966	  4.71601	  3.88984	  0.83542	  2.78431	  1.82632	 -0.10328	  4.95811	706.28998	 23.80	
 10.194	 28.474	  4.71843	  3.78059	  0.92625	  3.03010	  1.60441	 -0.09741	  4.95307	706.45898	 23.80	
 10.190	 37.895	  4.71519	  3.62684	  1.04859	  3.25780	  1.40198	 -0.08818	  4.94468	706.28198	 23.80	
 10.215	 47.354	  4.73404	  3.45996	  1.20717	  3.47571	  1.23487	 -0.07769	  4.96437	706.37500	 23.80	
 10.203	 56.908	  4.72911	  3.23881	  1.39572	  3.63913	  1.09857	 -0.07811	  4.95158	706.26001	 23.80	
 10.192	 66.322	  4.73738	  3.00572	  1.61107	  3.77230	  0.99925	 -0.08230	  4.95256	706.27399	 23.80	
 10.208	 75.751	  4.75578	  2.76645	  1.84645	  3.88330	  0.92687	 -0.08860	  4.96891	706.37000	 23.80	
 10.210	 85.199	  4.74854	  2.50458	  2.09130	  3.92226	  0.89120	 -0.08791	  4.95693	706.24597	 23.80	
 10.210	 94.801	  4.74440	  2.23700	  2.35373	  3.91906	  0.89009	 -0.09202	  4.94645	706.28998	 23.80	
 10.208	104.249	  4.75491	  1.99547	  2.61552	  3.88275	  0.92835	 -0.09875	  4.95318	706.22803	 23.80	
 10.192	113.678	  4.76333	  1.76473	  2.87218	  3.79659	  1.00665	 -0.10007	  4.95586	706.26202	 23.80	
 10.203	123.092	  4.77854	  1.55088	  3.12075	  3.68091	  1.11213	 -0.10045	  4.96714	706.25299	 23.80	
 10.215	132.646	  4.76343	  1.35618	  3.33116	  3.50254	  1.24227	 -0.09188	  4.94906	706.27399	 23.80	
 10.190	142.105	  4.78225	  1.20243	  3.53169	  3.31183	  1.42359	 -0.08863	  4.96798	706.37201	 23.80	
 10.194	151.526	  4.76325	  1.07034	  3.67078	  3.07022	  1.61783	 -0.09069	  4.94814	706.36401	 23.80	
 10.210	161.034	  4.76851	  0.97423	  3.79083	  2.82660	  1.83872	 -0.09466	  4.95117	706.36902	 23.80	
 10.191	170.497	  4.77137	  0.91683	  3.86332	  2.57329	  2.08088	 -0.09603	  4.95758	706.39801	 23.80	
 11.899	171.783	  4.67398	  0.61011	  4.05557	  2.49371	  1.99422	 -0.13561	  4.95471	706.45898	 23.80	
 11.890	163.610	  4.68081	  0.66130	  4.00016	  2.75567	  1.75532	 -0.13532	  4.96172	706.27399	 23.80	
 11.889	155.445	  4.67647	  0.74203	  3.89365	  3.00370	  1.52510	 -0.12861	  4.95235	706.35199	 23.80	
 11.909	147.299	  4.68177	  0.85017	  3.76460	  3.25100	  1.31198	 -0.12852	  4.96010	706.29797	 23.80	
 11.902	139.148	  4.68450	  0.99279	  3.59582	  3.47159	  1.12782	 -0.12483	  4.96277	706.43201	 23.80	
 11.894	130.867	  4.68085	  1.16181	  3.39042	  3.66196	  0.96813	 -0.13146	  4.95757	706.34900	 23.80	
 11.897	122.732	  4.67654	  1.35196	  3.16649	  3.82846	  0.83255	 -0.13945	  4.96291	706.37000	 23.80	
 11.903	114.597	  4.66982	  1.56098	  2.92217	  3.95682	  0.72398	 -0.14236	  4.95651	706.35303	 23.80	
 11.893	106.346	  4.66670	  1.79649	  2.66521	  4.05308	  0.64695	 -0.14449	  4.95919	706.39099	 23.80	
 11.892	 98.155	  4.65832	  2.03815	  2.39952	  4.10414	  0.59783	 -0.13993	  4.95485	706.41901	 23.80	
 11.900	 90.000	  4.66980	  2.29844	  2.14539	  4.13604	  0.58227	 -0.13345	  4.97544	706.35602	 23.80	
 11.892	 81.845	  4.64240	  2.54697	  1.87961	  4.09186	  0.59522	 -0.12837	  4.94943	706.31097	 23.80	
 11.893	 73.654	  4.63557	  2.80233	  1.63333	  4.02614	  0.63989	 -0.12349	  4.94968	706.29901	 23.80	
 11.903	 65.403	  4.63034	  3.05269	  1.40126	  3.92268	  0.71484	 -0.11582	  4.94724	706.40900	 23.80	
 11.897	 57.268	  4.62839	  3.29223	  1.19112	  3.78719	  0.82108	 -0.11415	  4.95247	706.42902	 23.80	
 11.894	 49.133	  4.63280	  3.51222	  1.00703	  3.62462	  0.95568	 -0.11481	  4.96161	706.32898	 23.80	
 11.902	 40.852	  4.61139	  3.69406	  0.83660	  3.41149	  1.10957	 -0.12027	  4.94415	706.36401	 23.80	
 11.909	 32.701	  4.61636	  3.86451	  0.70184	  3.19818	  1.29687	 -0.13093	  4.95688	706.40802	 23.80	
 11.889	 24.555	  4.61026	  3.98744	  0.59841	  2.94956	  1.51133	 -0.13825	  4.95093	706.30499	 23.80	
 11.890	 16.390	  4.60965	  4.08243	  0.52231	  2.69744	  1.73756	 -0.14141	  4.95519	706.33801	 23.80	
 11.899	  8.217	  4.60172	  4.13323	  0.47462	  2.43679	  1.97794	 -0.13882	  4.95021	706.31299	 23.80	
 11.900	  0.000	  4.60752	  4.15471	  0.46207	  2.17725	  2.23903	 -0.13868	  4.95579	706.43701	 23.80	
 11.899	 -8.217	  4.60366	  4.12977	  0.47765	  1.91959	  2.49619	 -0.13946	  4.95674	706.29797	 23.80	
 11.890	-16.390	  4.60355	  4.06473	  0.52723	  1.67750	  2.75275	 -0.14397	  4.95368	706.36102	 23.80	
 11.889	-24.555	  4.60510	  3.96808	  0.60535	  1.44661	  3.00813	 -0.14687	  4.95721	706.40601	 23.80	
 11.909	-32.701	  4.60331	  3.83075	  0.71119	  1.23504	  3.24594	 -0.14683	  4.95236	706.27301	 23.80	
 11.902	-40.852	  4.60531	  3.66250	  0.84807	  1.05243	  3.46289	 -0.14904	  4.95372	706.31097	 23.80	
 11.894	-49.133	  4.61700	  3.46770	  1.01806	  0.89147	  3.66765	 -0.15536	  4.96651	706.30701	 23.80	
 11.897	-57.268	  4.61506	  3.24516	  1.20659	  0.75453	  3.83310	 -0.16403	  4.95871	706.36401	 23.80	
 11.903	-65.403	  4.60671	  2.99433	  1.41571	  0.64432	  3.96132	 -0.16837	  4.94961	706.36902	 23.80	
 11.893	-73.654	  4.61043	  2.73831	  1.65064	  0.57473	  4.05585	 -0.17022	  4.94888	706.24500	 23.80	
 11.892	-81.845	  4.62995	  2.48788	  1.90356	  0.53266	  4.12871	 -0.17036	  4.96347	706.28497	 23.80	
 11.900	-90.000	  4.61524	  2.21793	  2.15513	  0.51809	  4.13197	 -0.16987	  4.94473	706.31598	 23.80	
 11.892	-98.155	  4.63546	  1.97112	  2.42363	  0.53746	  4.12699	 -0.16860	  4.96050	706.22601	 23.80	
 11.893	-106.346	  4.62878	  1.72414	  2.67927	  0.58231	  4.06237	 -0.16283	  4.95130	706.34399	 23.80	
 11.903	-114.597	  4.64385	  1.49444	  2.94284	  0.66134	  3.97610	 -0.15175	  4.96375	706.25403	 23.80	
 11.897	-122.732	  4.65125	  1.28775	  3.18608	  0.77415	  3.84505	 -0.14386	  4.96342	706.35602	 23.80	
 11.894	-130.867	  4.64952	  1.10496	  3.40153	  0.91424	  3.67343	 -0.13517	  4.95894	706.27002	 23.80	
 11.902	-139.148	  4.65240	  0.94307	  3.60247	  1.08380	  3.47515	 -0.13503	  4.95499	706.26599	 23.80	
 11.909	-147.299	  4.65289	  0.80989	  3.76630	  1.27084	  3.25653	 -0.14158	  4.95218	706.35498	 23.80	
 11.889	-155.445	  4.65385	  0.71109	  3.89595	  1.48497	  3.01575	 -0.14986	  4.94620	706.24298	 23.80	
 11.890	-163.610	  4.67224	  0.64104	  4.00381	  1.72405	  2.77290	 -0.14950	  4.96137	706.30798	 23.80	
 11.899	-171.783	  4.67102	  0.59795	  4.05982	  1.96831	  2.51151	 -0.14362	  4.95295	706.35999	 23.80	
 11.900	180.000	  4.67870	  0.58724	  4.08305	  2.22911	  2.25665	 -0.13675	  4.96088	706.43903	 23.80	
 13.600	180.000	  4.55383	  0.28546	  4.24766	  2.13355	  2.15436	 -0.17628	  4.94833	706.29797	 23.80	
 13.608	-172.853	  4.56152	  0.29136	  4.24179	  1.88337	  2.41384	 -0.18495	  4.96149	706.22803	 23.80	
 13.611	-165.583	  4.55106	  0.32623	  4.18545	  1.62802	  2.67156	 -0.19143	  4.95595	706.42499	 23.80	
 13.601	-158.353	  4.54023	  0.38729	  4.09058	  1.38667	  2.92539	 -0.19310	  4.94711	706.31598	 23.80	
 13.609	-151.210	  4.54694	  0.47475	  3.98194	  1.17124	  3.17570	 -0.18758	  4.96017	706.41400	 23.80	
 13.611	-143.999	  4.53908	  0.58718	  3.82834	  0.96815	  3.40167	 -0.17986	  4.95525	706.37500	 23.80	
 13.601	-136.825	  4.52725	  0.72404	  3.64407	  0.78575	  3.61092	 -0.17034	  4.94910	706.21399	 23.80	
 13.596	-129.640	  4.53712	  0.88867	  3.44923	  0.62869	  3.81164	 -0.16944	  4.96315	706.29102	 23.80	
