FileType=PCF
NHL=14
Date=08/30/17	12:15:53
Facility=APL
Serial=16328-18
Customer=NASA
NP=6
Mach=0.200000
Calibration=1:1
CalPts=490
TstPts=95
PortNumbering=AP Standard
Units=Torr C m/s kg/m^3 deg mm 
Theta[deg]	Phi[deg]	P1[Torr]	P2[Torr]	P3[Torr]	P4[Torr]	P5[Torr]	P6[Torr]	Pt[Torr]	Ps[Abs,Torr]	Ts[C]	
  0.000	  0.000	 19.68326	 10.12214	  9.68715	  9.90361	 10.03253	  0.28187	 19.64839	706.24597	 23.70	
  1.691	128.401	 19.68024	  9.46772	 10.31187	 10.70050	  9.22530	  0.28971	 19.64392	706.33301	 23.70	
  1.692	 77.194	 19.65545	 10.32849	  9.42179	 10.85745	  9.02446	  0.29935	 19.62437	706.39398	 23.70	
  1.699	 26.182	 19.68013	 11.04188	  8.75178	 10.33442	  9.55896	  0.28175	 19.65743	706.33600	 23.70	
  1.699	-26.182	 19.65357	 11.02385	  8.74622	  9.40354	 10.46833	  0.28302	 19.62861	706.24298	 23.70	
  1.692	-77.194	 19.69895	 10.32298	  9.47099	  8.90428	 11.02947	  0.27767	 19.67062	706.27698	 23.70	
  1.691	-128.401	 19.66082	  9.45860	 10.31369	  9.07903	 10.83447	  0.28030	 19.63049	706.16400	 23.70	
  1.700	180.000	 19.66634	  9.08231	 10.71411	  9.87548	 10.02677	  0.27990	 19.63397	706.37799	 23.70	
  3.400	180.000	 19.65978	  8.05153	 11.70371	  9.80859	  9.97701	  0.23288	 19.64238	706.16998	 23.70	
  3.388	-152.325	 19.62907	  8.24259	 11.44606	  8.86551	 10.90236	  0.20370	 19.61267	706.26599	 23.70	
  3.397	-124.529	 19.65449	  8.85140	 10.80053	  8.17620	 11.66826	  0.18067	 19.64429	706.27002	 23.70	
  3.399	-96.763	 19.62073	  9.73603	  9.83332	  7.82473	 12.01373	  0.21179	 19.61598	706.23499	 23.70	
  3.394	-69.283	 19.62788	 10.71977	  8.88334	  7.94635	 11.86546	  0.16375	 19.64206	706.32898	 23.70	
  3.400	-41.398	 19.61165	 11.58523	  8.05678	  8.46685	 11.26561	  0.22131	 19.63206	706.14697	 23.70	
  3.401	-14.021	 19.62512	 12.06536	  7.64532	  9.29350	 10.39810	  0.21612	 19.64460	706.27399	 23.70	
  3.401	 14.021	 19.63524	 12.08869	  7.63625	 10.28759	  9.42422	  0.25010	 19.65958	706.28998	 23.70	
  3.400	 41.398	 19.63934	 11.60233	  8.07233	 11.18089	  8.57544	  0.21806	 19.65214	706.20300	 23.60	
  3.394	 69.283	 19.61355	 10.78744	  8.81738	 11.72806	  8.06200	  0.24882	 19.62468	706.28198	 23.60	
  3.399	 96.763	 19.62857	  9.80325	  9.81281	 11.86954	  7.97347	  0.21644	 19.62260	706.33301	 23.70	
  3.397	124.529	 19.64369	  8.90942	 10.75180	 11.52503	  8.30419	  0.23562	 19.63200	706.32397	 23.60	
  3.388	152.325	 19.63743	  8.27441	 11.44745	 10.78338	  9.00679	  0.24390	 19.62360	706.25403	 23.60	
  5.099	161.165	 19.56822	  7.07324	 12.48325	 10.69841	  8.80538	  0.14153	 19.63094	706.12402	 23.60	
  5.109	142.013	 19.55865	  7.53325	 11.95224	 11.63104	  7.92836	  0.13205	 19.63312	706.25897	 23.60	
  5.095	123.033	 19.55095	  8.26287	 11.14281	 12.33467	  7.29340	  0.13799	 19.61782	706.29602	 23.60	
  5.105	104.191	 19.52721	  9.16275	 10.15937	 12.77145	  6.90296	  0.18113	 19.61811	706.24200	 23.60	
  5.093	 85.207	 19.50038	 10.16808	  9.11308	 12.83078	  6.80310	  0.12617	 19.59790	706.30701	 23.60	
  5.104	 66.290	 19.51867	 11.19332	  8.14718	 12.58371	  7.02074	  0.15078	 19.63301	706.21503	 23.60	
  5.094	 47.331	 19.49076	 12.04018	  7.33908	 11.97365	  7.51300	  0.12237	 19.62290	706.23901	 23.60	
  5.089	 28.397	 19.49416	 12.70246	  6.75035	 11.13816	  8.26317	  0.11310	 19.63399	706.38000	 23.60	
  5.096	  9.576	 19.48706	 13.04248	  6.44193	 10.13999	  9.20213	  0.09590	 19.63007	706.22803	 23.60	
  5.096	 -9.576	 19.45916	 13.01797	  6.45207	  9.07794	 10.24516	  0.08357	 19.60793	706.28400	 23.60	
  5.089	-28.397	 19.49507	 12.67170	  6.78358	  8.17454	 11.24612	  0.07114	 19.63125	706.23499	 23.60	
  5.094	-47.331	 19.47481	 11.99289	  7.36253	  7.40116	 12.08678	  0.06074	 19.59888	706.18597	 23.60	
  5.104	-66.290	 19.49398	 11.09886	  8.18854	  6.86326	 12.71025	  0.05482	 19.61292	706.20599	 23.60	
  5.093	-85.207	 19.50633	 10.07205	  9.17630	  6.64797	 12.99566	  0.05226	 19.61413	706.16602	 23.60	
  5.105	-104.191	 19.53870	  9.05961	 10.22831	  6.72302	 12.93160	  0.05819	 19.63152	706.27002	 23.60	
  5.095	-123.033	 19.54667	  8.17876	 11.20076	  7.12779	 12.48419	  0.08387	 19.63257	706.24500	 23.60	
  5.109	-142.013	 19.53063	  7.46318	 11.98564	  7.77396	 11.74786	  0.10074	 19.60470	706.24902	 23.60	
  5.099	-161.165	 19.52049	  7.03247	 12.48027	  8.65169	 10.79517	  0.11893	 19.58538	706.28497	 23.60	
  5.100	180.000	 19.54683	  6.90751	 12.65882	  9.64717	  9.79848	  0.13772	 19.60302	706.24500	 23.60	
  6.800	180.000	 19.41036	  5.70514	 13.61760	  9.47912	  9.60635	  0.00182	 19.62107	706.17999	 23.50	
  6.796	-166.229	 19.40377	  5.79308	 13.50203	  8.48881	 10.61186	  0.00298	 19.61766	706.20001	 23.50	
  6.808	-152.311	 19.41118	  6.10025	 13.14640	  7.57060	 11.59036	 -0.01114	 19.63551	706.23102	 23.50	
  6.795	-138.383	 19.39137	  6.61824	 12.51746	  6.74765	 12.47997	 -0.01842	 19.62436	705.90399	 23.50	
  6.792	-124.591	 19.36536	  7.30646	 11.71806	  6.12104	 13.17402	 -0.03322	 19.61333	706.06500	 23.50	
  6.787	-110.754	 19.35151	  8.15523	 10.78376	  5.69941	 13.64960	 -0.06156	 19.61028	705.97803	 23.50	
  6.800	-96.985	 19.33621	  9.10568	  9.78366	  5.46707	 13.90412	 -0.07831	 19.61575	706.04797	 23.50	
  6.800	-83.015	 19.30278	 10.12016	  8.73592	  5.46642	 13.86290	 -0.09768	 19.58929	706.09698	 23.50	
  6.787	-69.246	 19.30511	 11.12716	  7.78420	  5.67301	 13.61831	 -0.09540	 19.60950	706.02899	 23.50	
  6.792	-55.409	 19.29748	 12.05916	  6.92260	  6.08869	 13.11576	 -0.08183	 19.61500	706.01501	 23.50	
  6.795	-41.617	 19.28425	 12.85853	  6.20259	  6.70948	 12.40804	 -0.07065	 19.60834	706.14099	 23.50	
  6.808	-27.689	 19.29178	 13.50064	  5.65877	  7.50735	 11.53771	 -0.05936	 19.62716	706.08502	 23.50	
  6.796	-13.771	 19.27596	 13.86700	  5.33434	  8.41682	 10.55219	 -0.03704	 19.62759	706.13599	 23.50	
  6.800	  0.000	 19.26652	 13.99559	  5.20561	  9.39516	  9.53472	 -0.02888	 19.60024	706.11902	 23.50	
  6.796	 13.771	 19.25921	 13.86761	  5.29929	 10.40859	  8.53467	 -0.01954	 19.59555	706.11298	 23.50	
  6.808	 27.689	 19.28340	 13.52291	  5.61049	 11.39834	  7.61484	 -0.01070	 19.61036	706.12097	 23.50	
  6.795	 41.617	 19.25068	 12.89551	  6.12505	 12.24107	  6.82080	  0.01339	 19.57892	706.13898	 23.50	
  6.792	 55.409	 19.27976	 12.11922	  6.84391	 12.97109	  6.21396	  0.02065	 19.59863	706.11102	 23.50	
  6.787	 69.246	 19.30199	 11.21062	  7.70634	 13.48110	  5.80492	  0.01938	 19.60119	706.15601	 23.50	
  6.800	 83.015	 19.30997	 10.23207	  8.65370	 13.74663	  5.60586	  0.00371	 19.59213	706.09698	 23.50	
  6.800	 96.985	 19.35593	  9.22716	  9.69040	 13.77288	  5.62439	 -0.00392	 19.61742	706.12402	 23.50	
  6.787	110.754	 19.35489	  8.27535	 10.69080	 13.50838	  5.85345	 -0.00013	 19.59831	706.18103	 23.40	
  6.792	124.591	 19.40554	  7.44171	 11.64721	 13.03464	  6.30484	  0.01451	 19.63086	706.15900	 23.40	
  6.795	138.383	 19.38208	  6.70432	 12.43716	 12.32267	  6.90491	  0.00898	 19.60212	706.18701	 23.40	
  6.808	152.311	 19.39268	  6.14319	 13.07794	 11.46402	  7.68471	  0.00476	 19.60231	706.21198	 23.40	
  6.796	166.229	 19.37901	  5.81991	 13.45760	 10.48765	  8.59117	  0.01978	 19.59204	706.06000	 23.40	
  8.491	168.704	 19.16218	  4.58978	 14.37024	 10.30643	  8.32473	 -0.12957	 19.59711	706.15002	 23.40	
  8.502	157.493	 19.14956	  4.86064	 14.03701	 11.30046	  7.37733	 -0.11044	 19.58344	706.10400	 23.40	
  8.494	146.194	 19.18465	  5.32073	 13.52776	 12.25610	  6.52873	 -0.13157	 19.63074	706.03998	 23.40	
  8.495	135.039	 19.14399	  5.91818	 12.79997	 13.06941	  5.79352	 -0.13770	 19.59508	706.18597	 23.40	
  8.487	123.723	 19.14102	  6.68053	 11.94388	 13.75637	  5.19773	 -0.14961	 19.60076	706.12500	 23.40	
  8.492	112.575	 19.10416	  7.51778	 10.98532	 14.24092	  4.74638	 -0.16470	 19.57659	706.21997	 23.40	
  8.510	101.220	 19.09408	  8.49312	  9.95402	 14.55786	  4.47547	 -0.15310	 19.59038	705.99200	 23.40	
  8.500	 90.000	 19.07283	  9.48943	  8.91251	 14.64858	  4.38136	 -0.15475	 19.58415	705.93799	 23.40	
  8.510	 78.780	 19.05715	 10.52231	  7.89746	 14.52842	  4.45632	 -0.14044	 19.59682	706.04901	 23.40	
  8.492	 67.425	 19.08449	 11.55999	  6.94475	 14.22566	  4.73400	 -0.12754	 19.64142	706.14099	 23.40	
  8.487	 56.277	 19.01880	 12.44995	  6.07947	 13.67409	  5.12965	 -0.10672	 19.58817	706.17999	 23.40	
  8.495	 44.961	 18.99044	 13.26541	  5.32224	 12.96184	  5.69760	 -0.13212	 19.57641	706.14899	 23.40	
  8.494	 33.806	 19.00224	 13.95010	  4.74067	 12.13118	  6.45863	 -0.14160	 19.59824	706.10797	 23.40	
  8.502	 22.507	 18.99480	 14.45905	  4.30412	 11.20059	  7.29682	 -0.17797	 19.60303	706.11102	 23.40	
  8.491	 11.296	 18.99815	 14.75459	  4.06472	 10.20156	  8.25000	 -0.18296	 19.60736	706.15601	 23.40	
  8.500	  0.000	 18.99161	 14.86105	  3.98062	  9.14296	  9.28382	 -0.18054	 19.59976	706.11603	 23.40	
  8.491	-11.296	 19.00055	 14.74864	  4.09338	  8.14067	 10.32972	 -0.19530	 19.61136	706.16998	 23.40	
  8.502	-22.507	 18.97984	 14.41808	  4.34537	  7.18389	 11.32121	 -0.20118	 19.58338	706.12402	 23.40	
  8.494	-33.806	 19.00035	 13.89811	  4.80383	  6.31381	 12.29212	 -0.21475	 19.60136	706.13300	 23.40	
  8.495	-44.961	 18.99537	 13.19898	  5.39931	  5.57572	 13.11057	 -0.22776	 19.57693	706.00598	 23.40	
  8.487	-56.277	 19.04681	 12.37828	  6.17532	  5.01442	 13.82700	 -0.24813	 19.62103	706.15002	 23.40	
  8.492	-67.425	 19.05501	 11.43721	  7.03742	  4.58518	 14.33853	 -0.26576	 19.60877	706.03699	 23.40	
  8.510	-78.780	 19.04572	 10.40906	  8.00338	  4.31305	 14.65416	 -0.27423	 19.59085	706.01501	 23.40	
  8.500	-90.000	 19.08789	  9.38620	  9.03786	  4.24663	 14.78135	 -0.25409	 19.61248	706.00299	 23.40	
  8.510	-101.220	 19.09699	  8.36204	 10.08133	  4.32480	 14.70007	 -0.24450	 19.61697	705.90399	 23.40	
  8.492	-112.575	 19.08679	  7.39664	 11.09640	  4.60285	 14.36032	 -0.20896	 19.59308	705.95300	 23.40	
  8.487	-123.723	 19.09968	  6.54831	 12.02857	  5.03480	 13.86072	 -0.18089	 19.58953	706.03802	 23.40	
  8.495	-135.039	 19.12450	  5.81464	 12.88120	  5.62596	 13.18672	 -0.15586	 19.60696	706.07703	 23.40	
  8.494	-146.194	 19.14641	  5.23747	 13.57127	  6.38809	 12.35482	 -0.15409	 19.61184	705.98401	 23.40	
  8.502	-157.493	 19.13151	  4.80315	 14.07370	  7.26932	 11.38055	 -0.15821	 19.58256	705.90399	 23.40	
  8.491	-168.704	 19.18888	  4.58567	 14.40799	  8.24307	 10.40803	 -0.14599	 19.62968	705.89301	 23.40	
  8.500	180.000	 19.16112	  4.48689	 14.49420	  9.25047	  9.34982	 -0.14530	 19.59724	706.00098	 23.40	
 10.200	180.000	 18.85153	  3.29935	 15.30989	  8.98131	  9.06476	 -0.28943	 19.59357	705.93597	 23.40	
 10.191	-170.497	 18.84227	  3.35036	 15.22299	  7.93987	 10.10295	 -0.31065	 19.58705	706.01099	 23.40	
 10.210	-161.034	 18.85075	  3.53192	 14.98575	  6.96241	 11.12924	 -0.32645	 19.60956	705.95898	 23.40	
 10.194	-151.526	 18.81282	  3.87318	 14.51476	  6.02431	 12.12264	 -0.31350	 19.58046	705.99200	 23.40	
 10.190	-142.105	 18.80803	  4.36394	 13.92386	  5.20924	 13.03022	 -0.29862	 19.59459	705.97998	 23.40	
 10.215	-132.646	 18.80336	  4.97446	 13.19672	  4.49817	 13.83895	 -0.29801	 19.60001	706.04498	 23.40	
 10.203	-123.092	 18.81410	  5.75658	 12.33281	  3.90927	 14.55245	 -0.32190	 19.62298	705.90698	 23.30	
 10.192	-113.678	 18.77225	  6.60503	 11.35257	  3.47666	 15.04645	 -0.35488	 19.59806	705.76202	 23.30	
 10.208	-104.249	 18.75600	  7.52962	 10.34104	  3.16649	 15.40605	 -0.40368	 19.59556	705.95599	 23.30	
 10.210	-94.801	 18.71346	  8.52388	  9.28145	  2.99701	 15.56882	 -0.43422	 19.58119	706.07397	 23.30	
 10.210	-85.199	 18.70283	  9.57065	  8.21722	  2.98774	 15.55781	 -0.45679	 19.57401	706.07703	 23.30	
 10.208	-75.751	 18.70645	 10.63963	  7.20162	  3.12202	 15.39255	 -0.46090	 19.59475	706.04199	 23.30	
 10.192	-66.322	 18.71010	 11.65750	  6.26744	  3.43208	 15.02414	 -0.45778	 19.61124	706.02301	 23.30	
 10.203	-56.908	 18.68200	 12.61080	  5.39011	  3.85476	 14.48463	 -0.42739	 19.59222	706.06799	 23.30	
 10.215	-47.354	 18.68072	 13.49267	  4.60951	  4.42619	 13.81294	 -0.40186	 19.61132	706.09302	 23.30	
 10.190	-37.895	 18.64840	 14.21941	  3.96076	  5.12489	 12.97437	 -0.36619	 19.58387	706.00098	 23.30	
 10.194	-28.474	 18.64042	 14.82321	  3.44956	  5.92541	 12.07296	 -0.35612	 19.58576	705.97498	 23.30	
 10.210	-18.966	 18.64195	 15.28417	  3.07033	  6.84648	 11.07362	 -0.34980	 19.60198	705.99799	 23.30	
 10.191	 -9.503	 18.61792	 15.54502	  2.84827	  7.80896	 10.03370	 -0.33311	 19.57819	706.06897	 23.30	
 10.200	  0.000	 18.62346	 15.64681	  2.75265	  8.83918	  8.98558	 -0.32981	 19.57824	706.06897	 23.30	
 10.191	  9.503	 18.62005	 15.56958	  2.80700	  9.89624	  7.94427	 -0.34354	 19.58316	705.93597	 23.30	
 10.210	 18.966	 18.64042	 15.33188	  2.99949	 10.92545	  6.96638	 -0.34046	 19.59769	706.07300	 23.30	
 10.194	 28.474	 18.64062	 14.88052	  3.37092	 11.91130	  6.06856	 -0.33339	 19.59107	705.87201	 23.30	
 10.190	 37.895	 18.63539	 14.27708	  3.87399	 12.81719	  5.25432	 -0.30612	 19.57135	705.99298	 23.30	
 10.215	 47.354	 18.63666	 13.56816	  4.48297	 13.63972	  4.55136	 -0.26163	 19.57556	705.92700	 23.30	
 10.203	 56.908	 18.68389	 12.73712	  5.25759	 14.33887	  4.00353	 -0.24906	 19.60199	705.88501	 23.30	
 10.192	 66.322	 18.69404	 11.78307	  6.11491	 14.86009	  3.59304	 -0.27360	 19.58488	705.92700	 23.30	
 10.208	 75.751	 18.68031	 10.76982	  7.04670	 15.21863	  3.28878	 -0.28803	 19.55540	705.96899	 23.30	
 10.210	 85.199	 18.71116	  9.74529	  8.05463	 15.42447	  3.12255	 -0.31593	 19.56360	706.01801	 23.30	
 10.210	 94.801	 18.76583	  8.71300	  9.14001	 15.45604	  3.15346	 -0.32787	 19.59815	706.00702	 23.30	
 10.208	104.249	 18.78585	  7.70682	 10.18938	 15.28915	  3.32399	 -0.35098	 19.58477	705.83398	 23.30	
 10.192	113.678	 18.80587	  6.77234	 11.21091	 14.92822	  3.64178	 -0.32483	 19.58527	705.81000	 23.30	
 10.203	123.092	 18.79567	  5.89880	 12.16673	 14.41098	  4.05731	 -0.31275	 19.56580	705.91400	 23.30	
 10.215	132.646	 18.83267	  5.11850	 13.07839	 13.77574	  4.61433	 -0.29797	 19.58636	705.96997	 23.30	
 10.190	142.105	 18.82925	  4.48743	 13.82818	 12.95707	  5.32439	 -0.26884	 19.57371	705.91101	 23.30	
 10.194	151.526	 18.86861	  3.98710	 14.46895	 12.06469	  6.15455	 -0.26010	 19.60076	705.95599	 23.30	
 10.210	161.034	 18.85162	  3.60671	 14.93494	 11.07009	  7.05254	 -0.27061	 19.59117	705.96198	 23.30	
 10.191	170.497	 18.82720	  3.38508	 15.17703	 10.02699	  8.00133	 -0.27640	 19.55950	705.94501	 23.30	
 11.899	171.783	 18.46739	  2.14632	 15.98821	  9.74172	  7.66529	 -0.46580	 19.59126	705.89301	 23.30	
 11.890	163.610	 18.45966	  2.34791	 15.72258	 10.76465	  6.68957	 -0.44197	 19.56965	705.85901	 23.30	
 11.889	155.445	 18.47313	  2.67168	 15.32899	 11.77840	  5.78213	 -0.41669	 19.58118	705.89001	 23.30	
 11.909	147.299	 18.48140	  3.09077	 14.80036	 12.74020	  4.92378	 -0.41099	 19.60365	705.92798	 23.30	
 11.902	139.148	 18.44066	  3.65247	 14.07788	 13.58718	  4.16016	 -0.41581	 19.55187	705.96899	 23.20	
 11.894	130.867	 18.45948	  4.34183	 13.29245	 14.38238	  3.50981	 -0.45319	 19.58797	705.85901	 23.30	
 11.897	122.732	 18.44916	  5.09737	 12.39866	 15.04207	  2.95511	 -0.48783	 19.59765	705.89600	 23.30	
 11.903	114.597	 18.41511	  5.94408	 11.41614	 15.55240	  2.49033	 -0.51530	 19.58647	705.90802	 23.20	
 11.893	106.346	 18.39551	  6.90463	 10.37332	 15.92581	  2.16806	 -0.52782	 19.58291	705.92700	 23.30	
 11.892	 98.155	 18.38869	  7.89445	  9.31897	 16.16238	  1.98243	 -0.51368	 19.60795	705.86902	 23.30	
 11.900	 90.000	 18.34443	  8.90730	  8.25194	 16.19699	  1.90936	 -0.49598	 19.57739	705.90698	 23.30	
 11.892	 81.845	 18.34674	  9.95742	  7.22739	 16.11764	  1.97282	 -0.46988	 19.60158	705.94501	 23.20	
 11.893	 73.654	 18.29510	 10.96725	  6.21700	 15.84494	  2.15780	 -0.44304	 19.56401	705.92700	 23.20	
 11.903	 65.403	 18.27600	 11.97822	  5.28138	 15.44634	  2.47398	 -0.39626	 19.56891	705.87701	 23.20	
 11.897	 57.268	 18.26994	 12.92488	  4.44003	 14.90791	  2.90931	 -0.38621	 19.58724	705.92700	 23.30	
 11.894	 49.133	 18.26642	 13.80699	  3.69000	 14.24232	  3.45666	 -0.39050	 19.60261	705.90503	 23.20	
 11.902	 40.852	 18.23596	 14.55908	  3.01558	 13.43704	  4.09300	 -0.42974	 19.58224	705.95300	 23.30	
 11.909	 32.701	 18.24042	 15.23044	  2.47470	 12.56640	  4.84204	 -0.47414	 19.60474	705.92401	 23.20	
 11.889	 24.555	 18.21373	 15.71464	  2.05897	 11.58126	  5.69803	 -0.49529	 19.58111	705.90503	 23.20	
 11.890	 16.390	 18.21629	 16.09337	  1.76527	 10.57973	  6.62584	 -0.51691	 19.58819	705.96100	 23.30	
 11.899	  8.217	 18.18740	 16.29729	  1.57849	  9.53796	  7.58983	 -0.49252	 19.56147	705.77802	 23.20	
 11.900	  0.000	 18.21161	 16.38445	  1.53826	  8.49487	  8.64069	 -0.49809	 19.59235	706.00299	 23.20	
 11.899	 -8.217	 18.20567	 16.29068	  1.61918	  7.46836	  9.68407	 -0.50425	 19.58113	705.95300	 23.20	
 11.890	-16.390	 18.20621	 16.05172	  1.81733	  6.49245	 10.72565	 -0.50670	 19.57882	705.86603	 23.20	
 11.889	-24.555	 18.23116	 15.67898	  2.13555	  5.56162	 11.76112	 -0.51725	 19.60168	705.92999	 23.20	
 11.909	-32.701	 18.25092	 15.16000	  2.55820	  4.70852	 12.72621	 -0.51086	 19.61194	705.97601	 23.20	
 11.902	-40.852	 18.23281	 14.48073	  3.11276	  3.94719	 13.59004	 -0.53837	 19.58531	705.93500	 23.20	
 11.894	-49.133	 18.25378	 13.68609	  3.80748	  3.28073	 14.39445	 -0.56254	 19.58956	705.95203	 23.20	
 11.897	-57.268	 18.26130	 12.79837	  4.57171	  2.73092	 15.06294	 -0.58379	 19.58577	705.86902	 23.20	
 11.903	-65.403	 18.25706	 11.82516	  5.43116	  2.30789	 15.57346	 -0.60074	 19.56422	705.85101	 23.20	
 11.893	-73.654	 18.28421	 10.80526	  6.38242	  2.01300	 15.96760	 -0.61251	 19.56162	705.82898	 23.20	
 11.892	-81.845	 18.31997	  9.77318	  7.39515	  1.84968	 16.22148	 -0.62213	 19.58599	705.71100	 23.20	
 11.900	-90.000	 18.33060	  8.72300	  8.43442	  1.79825	 16.29758	 -0.61427	 19.58547	705.78998	 23.20	
 11.892	-98.155	 18.33678	  7.69228	  9.48008	  1.86111	 16.23076	 -0.57346	 19.57191	705.81799	 23.20	
 11.893	-106.346	 18.34872	  6.70511	 10.53669	  2.04191	 16.01033	 -0.54984	 19.58114	705.81000	 23.20	
 11.903	-114.597	 18.37089	  5.77196	 11.56611	  2.34411	 15.64526	 -0.49750	 19.59754	705.68298	 23.20	
 11.897	-122.732	 18.39266	  4.92722	 12.52322	  2.77675	 15.11579	 -0.46695	 19.59552	705.78998	 23.20	
 11.894	-130.867	 18.39235	  4.16845	 13.39680	  3.34170	 14.43360	 -0.43986	 19.57393	705.87201	 23.20	
 11.902	-139.148	 18.39880	  3.50470	 14.18790	  4.03557	 13.63709	 -0.44406	 19.56616	705.81702	 23.20	
 11.909	-147.299	 18.43496	  2.97777	 14.86210	  4.80364	 12.78673	 -0.46591	 19.59148	705.86798	 23.20	
 11.889	-155.445	 18.42392	  2.58966	 15.35466	  5.66578	 11.81809	 -0.47706	 19.56518	705.86798	 23.20	
 11.890	-163.610	 18.45225	  2.30471	 15.76826	  6.63592	 10.79622	 -0.49868	 19.58387	705.89099	 23.20	
 11.899	-171.783	 18.44720	  2.13050	 15.98491	  7.61971	  9.75542	 -0.48113	 19.57219	705.86798	 23.20	
 11.900	180.000	 18.45902	  2.07249	 16.06895	  8.66165	  8.71810	 -0.46550	 19.58126	705.84900	 23.20	
 13.600	180.000	 18.00923	  0.88640	 16.75105	  8.29891	  8.33832	 -0.63062	 19.57061	705.89001	 23.20	
 13.608	-172.853	 18.01225	  0.90671	 16.71580	  7.28203	  9.37022	 -0.65066	 19.58479	705.82098	 23.20	
 13.611	-165.583	 17.96175	  1.05410	 16.47909	  6.24541	 10.41376	 -0.66307	 19.54694	705.74402	 23.20	
 13.601	-158.353	 17.99501	  1.30377	 16.16197	  5.29720	 11.47106	 -0.65307	 19.59395	705.83398	 23.20	
 13.609	-151.210	 17.95521	  1.62245	 15.68682	  4.40277	 12.42374	 -0.65168	 19.56425	705.73602	 23.20	
 13.611	-143.999	 17.93870	  2.07268	 15.08936	  3.57861	 13.34845	 -0.61814	 19.56387	705.89001	 23.20	
 13.601	-136.825	 17.95272	  2.65039	 14.39672	  2.84893	 14.23004	 -0.57185	 19.59228	705.86200	 23.20	
 13.596	-129.640	 17.91847	  3.31739	 13.55866	  2.19353	 14.96899	 -0.58755	 19.57259	705.72498	 23.20	
