FileType=PCF
NHL=14
Date=05/31/19	09:01:47
Facility=APL
Serial=16071-13
Customer=NASA
NP=6
Mach=0.080000
Calibration=1:1
CalPts=490
TstPts=95
PortNumbering=AP Standard
Units=Torr C m/s kg/m^3 deg mm 
Theta[deg]	Phi[deg]	P1[Torr]	P2[Torr]	P3[Torr]	P4[Torr]	P5[Torr]	P6[Torr]	Pt[Torr]	Ps[Abs,Torr]	Ts[C]	
  0.000	  0.000	  3.16882	  1.31753	  1.43470	  1.44304	  1.26665	  0.07300	  3.16010	702.12000	 31.50	
  1.691	128.401	  3.16319	  1.20169	  1.49934	  1.54225	  1.13306	  0.06401	  3.15845	702.04999	 31.40	
  1.692	 77.194	  3.16907	  1.32845	  1.37676	  1.58149	  1.10468	  0.06698	  3.16185	702.08002	 31.50	
  1.699	 26.182	  3.16767	  1.44130	  1.28500	  1.49485	  1.18651	  0.06985	  3.16182	702.12000	 31.50	
  1.699	-26.182	  3.16920	  1.44507	  1.29872	  1.37147	  1.31594	  0.07058	  3.16150	702.06000	 31.40	
  1.692	-77.194	  3.16710	  1.34106	  1.40173	  1.29964	  1.40634	  0.07108	  3.15704	702.06000	 31.50	
  1.691	-128.401	  3.16875	  1.22853	  1.50746	  1.32509	  1.36883	  0.06755	  3.16012	701.97998	 31.40	
  1.700	180.000	  3.16667	  1.16326	  1.55736	  1.41890	  1.24830	  0.06339	  3.15994	702.03998	 31.40	
  3.400	180.000	  3.15688	  0.97419	  1.72838	  1.40046	  1.22478	  0.04710	  3.15858	702.09998	 31.50	
  3.388	-152.325	  3.16205	  1.02442	  1.68642	  1.25653	  1.38082	  0.05052	  3.15931	702.00000	 31.50	
  3.397	-124.529	  3.16632	  1.12676	  1.57989	  1.17117	  1.49709	  0.05516	  3.16076	702.08002	 31.40	
  3.399	-96.763	  3.16866	  1.26662	  1.44021	  1.13077	  1.55635	  0.06092	  3.16137	702.03003	 31.40	
  3.394	-69.283	  3.16783	  1.41426	  1.30404	  1.14491	  1.54537	  0.06278	  3.16119	702.03998	 31.50	
  3.400	-41.398	  3.16740	  1.54605	  1.18438	  1.22449	  1.44901	  0.06215	  3.16113	702.03003	 31.50	
  3.401	-14.021	  3.16670	  1.61683	  1.11779	  1.35139	  1.30934	  0.06257	  3.16075	702.03998	 31.50	
  3.401	 14.021	  3.16220	  1.60912	  1.10714	  1.50582	  1.14808	  0.06167	  3.15959	702.04999	 31.40	
  3.400	 41.398	  3.15886	  1.52845	  1.16378	  1.63948	  1.01737	  0.06168	  3.15960	702.03998	 31.50	
  3.394	 69.283	  3.15604	  1.38349	  1.28241	  1.72824	  0.93989	  0.05721	  3.15961	701.98999	 31.50	
  3.399	 96.763	  3.14987	  1.22879	  1.42679	  1.73859	  0.92004	  0.05422	  3.15633	702.03998	 31.40	
  3.397	124.529	  3.15515	  1.09034	  1.57655	  1.67882	  0.97004	  0.04896	  3.16121	702.03998	 31.50	
  3.388	152.325	  3.15566	  0.99864	  1.68791	  1.54933	  1.07984	  0.04671	  3.15963	702.02002	 31.50	
  5.099	161.165	  3.13367	  0.80607	  1.85949	  1.53617	  1.04250	  0.02489	  3.15775	702.00000	 31.50	
  5.109	142.013	  3.12869	  0.86342	  1.77523	  1.68648	  0.90777	  0.02666	  3.15703	702.01001	 31.50	
  5.095	123.033	  3.12846	  0.97219	  1.64328	  1.80994	  0.80431	  0.03146	  3.15768	702.15002	 31.50	
  5.105	104.191	  3.12751	  1.11372	  1.48770	  1.88770	  0.74266	  0.03515	  3.15754	702.07001	 31.50	
  5.093	 85.207	  3.12553	  1.27608	  1.32321	  1.90714	  0.72748	  0.03977	  3.15449	702.14001	 31.50	
  5.104	 66.290	  3.13276	  1.44481	  1.17313	  1.87450	  0.76087	  0.04414	  3.15781	702.09998	 31.50	
  5.094	 47.331	  3.14200	  1.59648	  1.05308	  1.78060	  0.85144	  0.04785	  3.16205	702.00000	 31.50	
  5.089	 28.397	  3.14187	  1.70910	  0.96709	  1.64331	  0.96996	  0.05134	  3.15663	702.03998	 31.50	
  5.096	  9.576	  3.14807	  1.77321	  0.92874	  1.49274	  1.11566	  0.04963	  3.15857	702.06000	 31.50	
  5.096	 -9.576	  3.15355	  1.78711	  0.92755	  1.32880	  1.28326	  0.04958	  3.16008	701.97998	 31.50	
  5.089	-28.397	  3.15512	  1.72984	  0.98141	  1.18643	  1.44278	  0.04967	  3.15652	702.01001	 31.50	
  5.094	-47.331	  3.15758	  1.62674	  1.07130	  1.06342	  1.58629	  0.05011	  3.15930	702.03998	 31.50	
  5.104	-66.290	  3.15592	  1.48843	  1.19569	  0.98224	  1.67943	  0.05170	  3.15577	701.98999	 31.50	
  5.093	-85.207	  3.15671	  1.32544	  1.34682	  0.94665	  1.72561	  0.05026	  3.15820	701.95001	 31.50	
  5.105	-104.191	  3.15769	  1.16583	  1.50558	  0.95425	  1.71377	  0.04494	  3.16052	702.02002	 31.50	
  5.095	-123.033	  3.15250	  1.02268	  1.65202	  1.00746	  1.63676	  0.04067	  3.15933	701.95001	 31.50	
  5.109	-142.013	  3.14948	  0.90791	  1.77922	  1.09588	  1.51927	  0.03333	  3.15931	702.03003	 31.50	
  5.099	-161.165	  3.14454	  0.82661	  1.86259	  1.22297	  1.36718	  0.02925	  3.15970	702.02002	 31.50	
  5.100	180.000	  3.13616	  0.79773	  1.88729	  1.37234	  1.19840	  0.02683	  3.15701	702.09998	 31.50	
  6.800	180.000	  3.10916	  0.60891	  2.04713	  1.34073	  1.17325	  0.00306	  3.16075	702.04999	 31.50	
  6.796	-166.229	  3.11213	  0.63194	  2.02616	  1.18993	  1.33361	  0.00486	  3.15868	701.98999	 31.50	
  6.808	-152.311	  3.11657	  0.68541	  1.96652	  1.05192	  1.48921	  0.00902	  3.15661	702.00000	 31.50	
  6.795	-138.383	  3.12431	  0.77466	  1.87007	  0.93689	  1.63683	  0.01318	  3.16043	702.08002	 31.50	
  6.792	-124.591	  3.12956	  0.89092	  1.74201	  0.84809	  1.75885	  0.01756	  3.16169	702.08002	 31.50	
  6.787	-110.754	  3.13307	  1.02038	  1.59885	  0.79383	  1.83868	  0.02437	  3.15938	702.07001	 31.50	
  6.800	-96.985	  3.13571	  1.17817	  1.44033	  0.75966	  1.88377	  0.02822	  3.15841	702.06000	 31.50	
  6.800	-83.015	  3.13617	  1.33784	  1.28021	  0.76334	  1.88428	  0.03038	  3.15713	702.08002	 31.50	
  6.787	-69.246	  3.13606	  1.49997	  1.12822	  0.79657	  1.83827	  0.03372	  3.15695	702.19000	 31.50	
  6.792	-55.409	  3.13961	  1.65736	  0.99302	  0.85870	  1.75786	  0.03194	  3.16283	702.07001	 31.50	
  6.795	-41.617	  3.13419	  1.78209	  0.88037	  0.95419	  1.64040	  0.03190	  3.15901	701.97998	 31.50	
  6.808	-27.689	  3.13087	  1.87775	  0.80026	  1.08316	  1.48951	  0.03180	  3.15832	701.96997	 31.50	
  6.796	-13.771	  3.12886	  1.93590	  0.74824	  1.22483	  1.33176	  0.03082	  3.15814	702.09998	 31.50	
  6.800	  0.000	  3.12872	  1.95494	  0.72710	  1.38528	  1.16677	  0.03002	  3.16277	702.10999	 31.50	
  6.796	 13.771	  3.11806	  1.91994	  0.74073	  1.54434	  1.00477	  0.03290	  3.15618	702.00000	 31.50	
  6.808	 27.689	  3.11475	  1.84848	  0.78880	  1.70031	  0.86146	  0.03330	  3.15987	702.06000	 31.50	
  6.795	 41.617	  3.10603	  1.73652	  0.86943	  1.83447	  0.73678	  0.02982	  3.15403	701.98999	 31.50	
  6.792	 55.409	  3.10691	  1.60358	  0.97802	  1.94924	  0.64351	  0.02711	  3.16041	702.03998	 31.50	
  6.787	 69.246	  3.10208	  1.44757	  1.10600	  2.02272	  0.57817	  0.02615	  3.15953	702.04999	 31.50	
  6.800	 83.015	  3.09578	  1.28083	  1.25195	  2.06133	  0.54118	  0.02036	  3.15816	702.15997	 31.50	
  6.800	 96.985	  3.09317	  1.11641	  1.41384	  2.05556	  0.54085	  0.01420	  3.15819	702.01001	 31.50	
  6.787	110.754	  3.09333	  0.96307	  1.57498	  2.00706	  0.57859	  0.01161	  3.15726	702.10999	 31.50	
  6.792	124.591	  3.09259	  0.82843	  1.72593	  1.91835	  0.64774	  0.00785	  3.15702	702.07001	 31.50	
  6.795	138.383	  3.09684	  0.72656	  1.85799	  1.80087	  0.74389	  0.00186	  3.15961	702.09998	 31.50	
  6.808	152.311	  3.09779	  0.65497	  1.95815	  1.65424	  0.86896	 -0.00123	  3.15772	702.14001	 31.50	
  6.796	166.229	  3.10145	  0.61546	  2.02213	  1.49794	  1.01305	  0.00170	  3.15740	702.10999	 31.50	
  8.491	168.704	  3.05880	  0.42202	  2.17221	  1.46226	  0.96564	 -0.02746	  3.15798	702.12000	 31.50	
  8.502	157.493	  3.05599	  0.45182	  2.12275	  1.62505	  0.81771	 -0.02795	  3.16132	702.07001	 31.50	
  8.494	146.194	  3.04895	  0.51316	  2.02972	  1.77843	  0.68128	 -0.03088	  3.15646	702.14001	 31.50	
  8.495	135.039	  3.04607	  0.59290	  1.91629	  1.92027	  0.56395	 -0.02747	  3.15593	702.10999	 31.50	
  8.487	123.723	  3.04756	  0.70551	  1.77591	  2.04111	  0.47094	 -0.02088	  3.15916	702.10999	 31.50	
  8.492	112.575	  3.04716	  0.83692	  1.62119	  2.12844	  0.40465	 -0.01653	  3.15842	702.20001	 31.50	
  8.510	101.220	  3.04623	  0.99058	  1.45362	  2.18611	  0.36174	 -0.01469	  3.15864	702.14001	 31.50	
  8.500	 90.000	  3.04940	  1.15264	  1.29218	  2.21090	  0.35244	 -0.00926	  3.15925	702.19000	 31.50	
  8.510	 78.780	  3.05255	  1.32058	  1.13370	  2.20234	  0.36026	 -0.00233	  3.15796	702.22998	 31.50	
  8.492	 67.425	  3.05702	  1.49116	  0.98692	  2.15368	  0.40067	  0.00295	  3.16032	702.10999	 31.50	
  8.487	 56.277	  3.06046	  1.65126	  0.85342	  2.07343	  0.46456	  0.00389	  3.15786	702.19000	 31.50	
  8.495	 44.961	  3.06530	  1.79881	  0.73966	  1.96241	  0.55622	  0.00629	  3.15832	702.16998	 31.50	
  8.494	 33.806	  3.07180	  1.91930	  0.65243	  1.83052	  0.67069	  0.00993	  3.15885	702.15002	 31.50	
  8.502	 22.507	  3.07521	  2.01612	  0.58441	  1.67623	  0.80608	  0.01145	  3.15799	702.12000	 31.50	
  8.491	 11.296	  3.08685	  2.07842	  0.55017	  1.52495	  0.95819	  0.01124	  3.16157	702.08002	 31.50	
  8.500	  0.000	  3.08841	  2.10632	  0.53649	  1.35350	  1.12335	  0.00759	  3.15938	702.12000	 31.50	
  8.491	-11.296	  3.09238	  2.08959	  0.55787	  1.19012	  1.29732	  0.01059	  3.15616	702.16998	 31.50	
  8.502	-22.507	  3.09740	  2.04989	  0.59527	  1.03551	  1.46417	  0.01023	  3.15821	702.10999	 31.50	
  8.494	-33.806	  3.10209	  1.96629	  0.66843	  0.90298	  1.62465	  0.01158	  3.15926	702.17999	 31.50	
  8.495	-44.961	  3.10606	  1.85071	  0.76413	  0.78850	  1.76655	  0.01073	  3.16005	702.12000	 31.50	
  8.487	-56.277	  3.10296	  1.71200	  0.87658	  0.69009	  1.88339	  0.01096	  3.15468	702.15002	 31.50	
  8.492	-67.425	  3.10535	  1.56116	  1.00982	  0.61668	  1.97819	  0.01145	  3.15870	702.15997	 31.50	
  8.510	-78.780	  3.10273	  1.39332	  1.16033	  0.57588	  2.03017	  0.00876	  3.15744	702.10999	 31.50	
  8.500	-90.000	  3.10184	  1.22713	  1.32030	  0.56691	  2.04735	  0.00590	  3.15863	702.14001	 31.50	
  8.510	-101.220	  3.09960	  1.06423	  1.48222	  0.57337	  2.03043	  0.00311	  3.15807	702.13000	 31.50	
  8.492	-112.575	  3.09433	  0.90583	  1.64650	  0.61183	  1.97481	  0.00058	  3.15644	702.09003	 31.50	
  8.487	-123.723	  3.09155	  0.77114	  1.79744	  0.67047	  1.88828	 -0.00736	  3.15859	702.16998	 31.50	
  8.495	-135.039	  3.08611	  0.65215	  1.93125	  0.76219	  1.76641	 -0.01147	  3.15645	702.12000	 31.50	
  8.494	-146.194	  3.08230	  0.55672	  2.04443	  0.86668	  1.62649	 -0.01571	  3.15883	702.17999	 31.50	
  8.502	-157.493	  3.07371	  0.48371	  2.12669	  0.99563	  1.46661	 -0.01950	  3.15615	702.02002	 31.50	
  8.491	-168.704	  3.07079	  0.43570	  2.18014	  1.13772	  1.30521	 -0.02459	  3.15970	702.06000	 31.50	
  8.500	180.000	  3.06732	  0.41671	  2.19868	  1.30204	  1.13128	 -0.02612	  3.16268	702.15002	 31.50	
 10.200	180.000	  3.00733	  0.22131	  2.33665	  1.24233	  1.08565	 -0.05798	  3.15878	702.09003	 31.50	
 10.191	-170.497	  3.01543	  0.24059	  2.32440	  1.08666	  1.25287	 -0.05802	  3.15949	702.06000	 31.50	
 10.210	-161.034	  3.01895	  0.28248	  2.27985	  0.93584	  1.42608	 -0.05437	  3.15874	702.15002	 31.50	
 10.194	-151.526	  3.02948	  0.34078	  2.21100	  0.80160	  1.59431	 -0.04834	  3.16044	702.08002	 31.50	
 10.190	-142.105	  3.03569	  0.42525	  2.10821	  0.68322	  1.74824	 -0.04298	  3.16115	702.10999	 31.50	
 10.215	-132.646	  3.03983	  0.52915	  1.98391	  0.57999	  1.88807	 -0.04023	  3.15986	702.14001	 31.50	
 10.203	-123.092	  3.04265	  0.65261	  1.84117	  0.49719	  2.00326	 -0.03579	  3.15769	702.02002	 31.50	
 10.192	-113.678	  3.04746	  0.78181	  1.69230	  0.43473	  2.09788	 -0.02899	  3.15860	702.03998	 31.50	
 10.208	-104.249	  3.05561	  0.93992	  1.52928	  0.39579	  2.16135	 -0.02644	  3.15901	702.02002	 31.50	
 10.210	-94.801	  3.05693	  1.10109	  1.36356	  0.37123	  2.19731	 -0.02412	  3.15958	702.12000	 31.50	
 10.210	-85.199	  3.05981	  1.27169	  1.19813	  0.37502	  2.19956	 -0.02201	  3.16032	702.09998	 31.50	
 10.208	-75.751	  3.06219	  1.44697	  1.03541	  0.40335	  2.16475	 -0.01673	  3.16133	702.03003	 31.50	
 10.192	-66.322	  3.06179	  1.61364	  0.88852	  0.45241	  2.09676	 -0.01247	  3.15998	702.12000	 31.50	
 10.203	-56.908	  3.06043	  1.76709	  0.75528	  0.51872	  2.00883	 -0.01460	  3.16023	702.21002	 31.50	
 10.215	-47.354	  3.05817	  1.91508	  0.63242	  0.60393	  1.89261	 -0.01541	  3.15962	702.03003	 31.50	
 10.190	-37.895	  3.05772	  2.03483	  0.53884	  0.72167	  1.74954	 -0.01339	  3.15883	702.12000	 31.50	
 10.194	-28.474	  3.05454	  2.13076	  0.46235	  0.84853	  1.59485	 -0.01195	  3.15974	702.06000	 31.50	
 10.210	-18.966	  3.05042	  2.20397	  0.40094	  0.99473	  1.42682	 -0.01238	  3.15821	702.09998	 31.50	
 10.191	 -9.503	  3.04502	  2.24261	  0.36462	  1.14954	  1.25381	 -0.01431	  3.15949	702.15997	 31.50	
 10.200	  0.000	  3.04117	  2.24684	  0.35408	  1.30997	  1.08536	 -0.01557	  3.15824	702.15997	 31.50	
 10.191	  9.503	  3.03355	  2.22428	  0.35849	  1.47829	  0.91319	 -0.01426	  3.15966	702.22998	 31.50	
 10.210	 18.966	  3.02671	  2.16935	  0.38657	  1.64427	  0.75498	 -0.01267	  3.15885	702.25000	 31.50	
 10.194	 28.474	  3.01669	  2.08361	  0.44011	  1.80226	  0.60946	 -0.01232	  3.15483	702.27002	 31.50	
 10.190	 37.895	  3.01598	  1.97800	  0.51846	  1.94843	  0.48837	 -0.01550	  3.15832	702.21997	 31.50	
 10.215	 47.354	  3.01077	  1.84520	  0.61001	  2.08312	  0.37413	 -0.02121	  3.16119	702.25000	 31.50	
 10.203	 56.908	  3.00110	  1.69025	  0.72551	  2.18798	  0.28802	 -0.02293	  3.15520	702.17999	 31.50	
 10.192	 66.322	  2.99984	  1.52714	  0.85936	  2.27088	  0.22830	 -0.02351	  3.15854	702.15002	 31.50	
 10.208	 75.751	  2.99303	  1.35701	  1.00214	  2.32403	  0.18184	 -0.02855	  3.15593	702.12000	 31.50	
 10.210	 85.199	  2.99210	  1.18543	  1.16287	  2.35093	  0.16284	 -0.03589	  3.15873	702.14001	 31.50	
 10.210	 94.801	  2.98821	  1.01576	  1.32629	  2.34723	  0.15597	 -0.04157	  3.15867	702.15997	 31.50	
 10.208	104.249	  2.98707	  0.85454	  1.49285	  2.30867	  0.18119	 -0.04417	  3.15746	702.09003	 31.50	
 10.192	113.678	  2.98836	  0.70636	  1.66211	  2.24362	  0.22741	 -0.04572	  3.15963	702.21997	 31.50	
 10.203	123.092	  2.99139	  0.57963	  1.81871	  2.14892	  0.29833	 -0.05067	  3.16195	702.20001	 31.50	
 10.215	132.646	  2.98994	  0.45927	  1.96551	  2.03655	  0.38057	 -0.05743	  3.16100	702.09003	 31.50	
 10.190	142.105	  2.99049	  0.37289	  2.08603	  1.89807	  0.48854	 -0.06133	  3.15786	702.17999	 31.50	
 10.194	151.526	  2.99368	  0.30149	  2.19123	  1.74545	  0.61515	 -0.06243	  3.15797	702.10999	 31.50	
 10.210	161.034	  2.99676	  0.25060	  2.27077	  1.57841	  0.76266	 -0.06088	  3.15779	702.03998	 31.50	
 10.191	170.497	  3.00647	  0.23095	  2.31711	  1.41308	  0.92141	 -0.05906	  3.16157	702.12000	 31.50	
 11.899	171.783	  2.93422	  0.03652	  2.44887	  1.35668	  0.86193	 -0.09173	  3.15839	702.08002	 31.50	
 11.890	163.610	  2.93136	  0.06089	  2.40717	  1.52539	  0.70335	 -0.09102	  3.15756	702.03003	 31.50	
 11.889	155.445	  2.92577	  0.10151	  2.33651	  1.68941	  0.55994	 -0.09244	  3.15696	702.09998	 31.50	
 11.909	147.299	  2.91883	  0.15671	  2.24513	  1.84956	  0.42226	 -0.09518	  3.15490	702.19000	 31.50	
 11.902	139.148	  2.91837	  0.23107	  2.13270	  1.99766	  0.30810	 -0.09332	  3.15735	702.03003	 31.50	
 11.894	130.867	  2.91917	  0.33192	  1.99862	  2.13381	  0.20640	 -0.08780	  3.15968	702.06000	 31.50	
 11.897	122.732	  2.91755	  0.44371	  1.84896	  2.25006	  0.12281	 -0.08249	  3.15905	702.09003	 31.50	
 11.903	114.597	  2.91974	  0.57405	  1.69467	  2.34393	  0.05932	 -0.07757	  3.16098	702.15002	 31.50	
 11.893	106.346	  2.92160	  0.71835	  1.52700	  2.41719	  0.01361	 -0.07520	  3.16207	702.15002	 31.50	
 11.892	 98.155	  2.92361	  0.87544	  1.35755	  2.46688	 -0.01872	 -0.07317	  3.16435	702.13000	 31.50	
 11.900	 90.000	  2.91786	  1.04015	  1.18594	  2.47931	 -0.03024	 -0.06944	  3.15505	702.17999	 31.50	
 11.892	 81.845	  2.92480	  1.21226	  1.02802	  2.47382	 -0.01954	 -0.06313	  3.16012	702.14001	 31.50	
 11.893	 73.654	  2.92799	  1.38845	  0.86683	  2.44081	  0.00465	 -0.05732	  3.16228	702.09003	 31.50	
 11.903	 65.403	  2.93042	  1.55796	  0.72539	  2.37946	  0.05023	 -0.05384	  3.15850	702.03003	 31.50	
 11.897	 57.268	  2.93778	  1.72250	  0.59775	  2.29722	  0.11586	 -0.05189	  3.16033	702.09998	 31.50	
 11.894	 49.133	  2.94545	  1.87864	  0.48446	  2.18697	  0.20304	 -0.05145	  3.16160	702.10999	 31.50	
 11.902	 40.852	  2.94656	  2.02003	  0.38029	  2.06122	  0.29998	 -0.04622	  3.15954	702.09003	 31.40	
 11.909	 32.701	  2.95780	  2.14017	  0.30380	  1.91901	  0.42306	 -0.04050	  3.16147	702.12000	 31.50	
 11.889	 24.555	  2.96201	  2.24049	  0.24032	  1.76445	  0.55301	 -0.03627	  3.15995	702.00000	 31.50	
 11.890	 16.390	  2.96710	  2.31294	  0.19743	  1.59856	  0.70129	 -0.04017	  3.15743	702.04999	 31.50	
 11.899	  8.217	  2.97346	  2.36063	  0.17179	  1.43011	  0.86304	 -0.04199	  3.15757	702.03003	 31.50	
 11.900	  0.000	  2.97939	  2.38896	  0.16275	  1.26421	  1.02689	 -0.04133	  3.15793	702.07001	 31.40	
 11.899	 -8.217	  2.98873	  2.38492	  0.17755	  1.10207	  1.20271	 -0.03873	  3.16073	702.15002	 31.50	
 11.890	-16.390	  2.99309	  2.34515	  0.20982	  0.94906	  1.37596	 -0.03654	  3.15889	702.07001	 31.50	
 11.889	-24.555	  2.99507	  2.28362	  0.25789	  0.79877	  1.54911	 -0.03552	  3.15886	702.15997	 31.50	
 11.909	-32.701	  2.99893	  2.20348	  0.32389	  0.65929	  1.71328	 -0.03986	  3.15948	702.06000	 31.50	
 11.902	-40.852	  3.00494	  2.09396	  0.40926	  0.54514	  1.86263	 -0.04347	  3.16083	702.09003	 31.50	
 11.894	-49.133	  3.00433	  1.96379	  0.51021	  0.43656	  2.00098	 -0.04208	  3.16001	702.04999	 31.40	
 11.897	-57.268	  3.00433	  1.81548	  0.62814	  0.35239	  2.11438	 -0.04364	  3.15760	702.14001	 31.50	
 11.903	-65.403	  3.00655	  1.65709	  0.76035	  0.27564	  2.21534	 -0.04229	  3.16124	702.12000	 31.50	
 11.893	-73.654	  3.00485	  1.48921	  0.90748	  0.23048	  2.27930	 -0.04768	  3.15906	702.21997	 31.50	
 11.892	-81.845	  3.00531	  1.31469	  1.06630	  0.19716	  2.32878	 -0.05151	  3.16154	702.04999	 31.40	
 11.900	-90.000	  3.00045	  1.14006	  1.22565	  0.18459	  2.34036	 -0.05533	  3.15813	702.14001	 31.40	
 11.892	-98.155	  2.99475	  0.97230	  1.39163	  0.19112	  2.32427	 -0.05608	  3.15667	702.17999	 31.40	
 11.893	-106.346	  2.99357	  0.80983	  1.56280	  0.21632	  2.28364	 -0.05707	  3.15817	702.06000	 31.40	
 11.903	-114.597	  2.98957	  0.65819	  1.72658	  0.26066	  2.21370	 -0.05904	  3.15851	702.09998	 31.40	
 11.897	-122.732	  2.98324	  0.52401	  1.87936	  0.32075	  2.11836	 -0.06435	  3.15824	702.06000	 31.40	
 11.894	-130.867	  2.98061	  0.40209	  2.02818	  0.39671	  2.00445	 -0.06798	  3.16083	702.08002	 31.40	
 11.902	-139.148	  2.97308	  0.29447	  2.15672	  0.49773	  1.86160	 -0.07146	  3.15815	702.03003	 31.40	
 11.909	-147.299	  2.96688	  0.20390	  2.26747	  0.60491	  1.71687	 -0.07494	  3.15903	701.96002	 31.40	
 11.889	-155.445	  2.96349	  0.14086	  2.35269	  0.73441	  1.55320	 -0.07928	  3.15953	701.97998	 31.40	
 11.890	-163.610	  2.95642	  0.08428	  2.41752	  0.87367	  1.38161	 -0.08290	  3.16036	701.97998	 31.40	
 11.899	-171.783	  2.95132	  0.05028	  2.45700	  1.02852	  1.20469	 -0.08646	  3.16145	702.01001	 31.40	
 11.900	180.000	  2.94330	  0.03667	  2.46602	  1.18736	  1.03393	 -0.08886	  3.16100	701.94000	 31.40	
 13.600	180.000	  2.86354	 -0.14914	  2.58622	  1.11746	  0.97683	 -0.11827	  3.16012	702.03003	 31.40	
 13.608	-172.853	  2.86741	 -0.13886	  2.57446	  0.95941	  1.14411	 -0.11583	  3.15758	702.02002	 31.40	
 13.611	-165.583	  2.87597	 -0.10903	  2.54482	  0.80466	  1.32147	 -0.11246	  3.15991	701.96997	 31.40	
 13.601	-158.353	  2.88325	 -0.05708	  2.48453	  0.65934	  1.49720	 -0.10946	  3.15907	701.98999	 31.40	
 13.609	-151.210	  2.88853	 -0.00008	  2.40778	  0.52971	  1.66123	 -0.10608	  3.15753	702.03998	 31.40	
 13.611	-143.999	  2.89780	  0.07337	  2.31139	  0.41135	  1.82714	 -0.10044	  3.16247	702.08002	 31.40	
 13.601	-136.825	  2.90346	  0.16038	  2.19585	  0.30975	  1.96996	 -0.10091	  3.16195	702.08002	 31.40	
 13.596	-129.640	  2.90690	  0.27428	  2.05748	  0.22078	  2.10282	 -0.09503	  3.15840	702.06000	 31.40	
