FileType=PCF
NHL=14
Date=05/30/19	17:23:53
Facility=APL
Serial=16071-13
Customer=NASA
NP=6
Mach=0.450000
Calibration=1:1
CalPts=490
TstPts=95
PortNumbering=AP Standard
Units=Torr C m/s kg/m^3 deg mm 
Theta[deg]	Phi[deg]	P1[Torr]	P2[Torr]	P3[Torr]	P4[Torr]	P5[Torr]	P6[Torr]	Pt[Torr]	Ps[Abs,Torr]	Ts[C]	
  0.000	  0.000	107.90997	 44.04297	 51.15972	 50.98878	 39.80154	  2.56824	107.69686	700.22998	 49.20	
  1.691	128.401	107.84328	 40.03070	 54.38218	 55.05754	 40.06740	  2.34514	107.80983	700.20001	 49.60	
  1.692	 77.194	107.90849	 44.99990	 49.72021	 56.49729	 40.23570	  2.47708	107.78944	700.28003	 49.70	
  1.699	 26.182	108.00783	 49.18291	 46.10608	 53.60550	 40.50326	  2.60791	107.80390	700.25000	 49.70	
  1.699	-26.182	108.02311	 49.36962	 46.23278	 48.65817	 40.75399	  2.68536	107.78912	700.20001	 49.80	
  1.692	-77.194	108.05355	 45.53941	 49.99040	 45.70797	 40.77233	  2.61538	107.81303	700.15997	 49.90	
  1.691	-128.401	108.09053	 40.52134	 54.62845	 46.50582	 40.68453	  2.48328	107.89525	700.23999	 49.90	
  1.700	180.000	107.99698	 38.06583	 56.69420	 50.66192	 40.47816	  2.36814	107.88818	700.15997	 50.00	
  3.400	180.000	107.66219	 32.11266	 62.08160	 50.00920	 39.81883	  1.95383	107.91753	700.09998	 50.10	
  3.388	-152.325	107.84128	 33.64563	 60.81502	 45.33786	 39.13017	  2.13486	107.94450	700.27002	 50.10	
  3.397	-124.529	107.96642	 37.41053	 57.23455	 40.98918	 39.24660	  2.29349	107.89059	700.15002	 50.20	
  3.399	-96.763	108.10972	 42.93830	 52.15811	 39.34670	 39.94773	  2.44000	107.94294	700.21002	 50.20	
  3.394	-69.283	108.09455	 48.44376	 47.01768	 40.00945	 41.21519	  2.54183	107.88503	700.15997	 50.30	
  3.400	-41.398	108.11897	 52.98560	 42.45605	 44.05163	 42.11823	  2.54862	107.92391	700.20001	 50.40	
  3.401	-14.021	108.13659	 55.44511	 39.76381	 48.37568	 42.15216	  2.57149	107.93515	700.21002	 50.40	
  3.401	 14.021	108.03751	 55.14998	 39.59196	 53.86582	 42.01114	  2.49050	107.95373	700.16998	 50.50	
  3.400	 41.398	107.84251	 52.26645	 41.88064	 58.58345	 41.53455	  2.35750	107.92177	700.98999	 50.50	
  3.394	 69.283	107.75661	 47.54509	 46.51075	 61.53226	 41.60564	  2.22533	107.95889	700.12000	 50.60	
  3.399	 96.763	107.64011	 42.01527	 51.61161	 61.95295	 41.35978	  2.04812	108.02237	700.21997	 50.60	
  3.397	124.529	107.61159	 36.71673	 56.76935	 59.69375	 39.82057	  1.93108	108.08896	700.20001	 50.70	
  3.388	152.325	107.59911	 33.35442	 60.49724	 55.38633	 38.44115	  1.91149	107.96188	700.28998	 50.80	
  5.099	161.165	106.80672	 26.91688	 66.18221	 54.60342	 37.34847	  1.31051	107.95804	700.26001	 50.80	
  5.109	142.013	106.70441	 29.18332	 63.25859	 59.88343	 36.67585	  1.23242	107.98090	700.28003	 50.80	
  5.095	123.033	106.76297	 33.10400	 58.95665	 64.10455	 36.84098	  1.38806	107.99007	700.22998	 50.90	
  5.105	104.191	106.82805	 37.94983	 53.70139	 66.61916	 37.28569	  1.44968	108.01630	700.21002	 50.90	
  5.093	 85.207	106.84386	 43.85492	 48.21613	 67.38503	 37.48331	  1.58060	107.95529	700.19000	 51.00	
  5.104	 66.290	107.10026	 49.68064	 42.63182	 66.40333	 38.02198	  1.74225	108.04766	700.27002	 51.00	
  5.094	 47.331	107.36716	 54.63361	 38.23078	 63.48915	 38.94288	  1.91150	108.03253	700.31000	 51.10	
  5.089	 28.397	107.58321	 58.54720	 35.22503	 58.94421	 40.07699	  2.07007	108.07427	700.33002	 51.10	
  5.096	  9.576	107.78106	 60.77157	 33.72969	 53.70786	 40.78379	  2.10829	108.10789	700.35999	 51.10	
  5.096	 -9.576	107.89550	 61.05147	 33.80269	 47.97178	 41.19215	  2.20928	108.04556	700.33002	 51.20	
  5.089	-28.397	108.00108	 59.31875	 35.55469	 43.23914	 41.03925	  2.24629	108.06573	700.20001	 51.20	
  5.094	-47.331	108.04449	 55.87149	 38.80345	 38.06458	 40.29873	  2.24338	108.10561	700.32001	 51.20	
  5.104	-66.290	107.99963	 50.98889	 43.79642	 34.99642	 39.41442	  2.20629	108.06094	700.29999	 51.30	
  5.093	-85.207	107.99106	 45.35315	 49.04957	 33.64188	 38.16438	  2.16202	108.11381	700.35999	 51.30	
  5.105	-104.191	107.88128	 39.47993	 54.45166	 33.83790	 37.75333	  2.01117	108.16486	700.35999	 51.40	
  5.095	-123.033	107.73322	 34.29756	 59.61865	 35.61593	 36.93274	  1.91376	108.14717	700.25000	 51.40	
  5.109	-142.013	107.51332	 30.03987	 63.83009	 38.90654	 36.23665	  1.73749	108.12291	700.28998	 51.50	
  5.099	-161.165	107.31939	 27.33329	 66.59133	 43.78809	 35.24504	  1.53973	108.13397	700.28003	 51.50	
  5.100	180.000	107.10078	 26.27946	 67.40633	 49.13902	 34.30373	  1.38638	108.08486	700.29999	 51.50	
  6.800	180.000	106.07891	 19.73756	 72.52381	 48.11179	 33.44749	  0.64564	108.04961	700.16998	 51.60	
  6.796	-166.229	106.22491	 20.55533	 72.00127	 42.64707	 32.84336	  0.84854	108.08224	700.32001	 51.60	
  6.808	-152.311	106.41816	 22.54450	 70.11499	 37.80295	 32.76265	  0.98571	108.09830	700.35999	 51.70	
  6.795	-138.383	106.70984	 25.92623	 66.71795	 33.79252	 33.25302	  1.12350	108.09190	700.26001	 51.70	
  6.792	-124.591	106.90643	 30.17105	 62.47277	 30.78395	 33.70435	  1.25690	108.12296	700.21997	 51.70	
  6.787	-110.754	107.13759	 34.99325	 57.51097	 28.72321	 33.98882	  1.48384	108.12231	700.32001	 51.70	
  6.800	-96.985	107.23915	 40.25166	 52.32195	 27.48104	 34.47114	  1.51309	108.13278	700.35999	 51.80	
  6.800	-83.015	107.41476	 46.08136	 47.19035	 27.70973	 34.81449	  1.60995	108.08637	700.19000	 51.80	
  6.787	-69.246	107.54149	 51.60261	 41.44513	 29.15439	 35.32454	  1.63766	108.13290	700.21997	 51.80	
  6.792	-55.409	107.53056	 56.63634	 36.79253	 31.74218	 36.28239	  1.68936	108.12758	700.16998	 51.80	
  6.795	-41.617	107.61219	 60.94903	 33.14537	 35.23795	 37.36517	  1.72077	108.16277	700.19000	 51.90	
  6.808	-27.689	107.51663	 64.23623	 30.19837	 39.50435	 38.37177	  1.73843	108.15502	700.34998	 51.90	
  6.796	-13.771	107.43276	 66.15429	 28.32117	 45.38125	 39.04760	  1.59629	108.20314	700.21997	 51.90	
  6.800	  0.000	107.14960	 66.67942	 27.50978	 50.17161	 39.23822	  1.53097	108.17652	700.28998	 51.90	
  6.796	 13.771	106.95013	 65.55355	 27.97520	 55.67608	 39.31018	  1.54920	108.14468	700.28998	 52.00	
  6.808	 27.689	106.79900	 63.17301	 29.62789	 60.83792	 39.37843	  1.44026	108.18948	700.21997	 52.00	
  6.795	 41.617	106.49362	 59.31552	 32.41903	 65.53065	 39.64286	  1.30374	108.11324	700.33002	 52.00	
  6.792	 55.409	106.29875	 54.73645	 36.16833	 69.19536	 39.21749	  1.23241	108.16891	700.22998	 52.10	
  6.787	 69.246	106.12817	 49.82889	 40.55540	 71.65323	 38.71820	  1.07798	108.28527	700.40002	 52.10	
  6.800	 83.015	105.94589	 44.36815	 46.00658	 72.76599	 38.20911	  0.93716	108.23327	700.28003	 52.10	
  6.800	 96.985	105.89619	 38.36187	 51.32553	 72.49054	 37.48019	  0.75849	108.25671	700.40997	 52.10	
  6.787	110.754	105.75626	 33.24218	 56.66101	 70.76441	 37.25545	  0.70118	108.26164	700.28998	 52.20	
  6.792	124.591	105.78067	 28.65244	 61.66154	 67.54984	 36.86816	  0.61004	108.21082	700.21002	 52.20	
  6.795	138.383	105.71116	 24.94011	 65.89320	 63.69996	 36.19015	  0.52691	108.18526	700.37000	 52.20	
  6.808	152.311	105.79968	 21.89557	 69.50414	 58.75322	 35.69681	  0.48766	108.17876	700.27002	 52.20	
  6.796	166.229	105.93223	 20.07316	 71.81731	 53.50769	 35.05222	  0.55324	108.21276	700.26001	 52.30	
  8.491	168.704	104.47517	 13.57627	 76.57555	 52.08294	 34.03463	 -0.36813	108.20119	700.37000	 52.30	
  8.502	157.493	104.37215	 14.61371	 74.82367	 57.52320	 33.41731	 -0.41357	108.30500	700.35999	 52.30	
  8.494	146.194	104.29550	 16.92100	 71.81058	 62.74860	 33.27236	 -0.45574	108.31333	700.29999	 52.30	
  8.495	135.039	104.24135	 20.13605	 67.77341	 67.44828	 33.14734	 -0.35182	108.19994	700.28998	 52.30	
  8.487	123.723	104.22720	 24.60351	 63.30427	 71.47816	 33.37965	 -0.26393	108.24544	700.40002	 52.40	
  8.492	112.575	104.25130	 29.29711	 58.24557	 74.53848	 33.53252	 -0.15765	108.30233	700.27002	 52.40	
  8.510	101.220	104.28024	 34.42345	 52.70071	 76.55824	 33.82481	 -0.08181	108.28660	700.26001	 52.40	
  8.500	 90.000	104.49329	 39.82605	 47.51197	 77.34163	 33.77328	  0.11148	108.30045	700.21002	 52.40	
  8.510	 78.780	104.59664	 45.88538	 41.75490	 77.16657	 34.14911	  0.22340	108.25811	700.25000	 52.40	
  8.492	 67.425	104.74136	 51.43166	 36.94353	 75.75942	 34.95193	  0.20130	108.25147	700.23999	 52.50	
  8.487	 56.277	105.04816	 56.56648	 32.50612	 73.33546	 35.73542	  0.40527	108.27186	700.28998	 52.50	
  8.495	 44.961	105.20750	 61.40473	 28.50595	 69.69799	 37.53055	  0.54563	108.30040	700.29999	 52.50	
  8.494	 33.806	105.53273	 65.47741	 25.23950	 65.34439	 39.55346	  0.72601	108.29602	700.28003	 52.50	
  8.502	 22.507	105.76094	 68.87900	 22.79514	 60.31263	 40.80498	  0.79738	108.35907	700.23999	 52.60	
  8.491	 11.296	105.99277	 70.96674	 21.42583	 54.96782	 41.46642	  0.87438	108.25751	700.22998	 52.60	
  8.500	  0.000	106.21825	 71.88268	 21.01822	 49.38496	 41.79205	  0.86169	108.29356	700.16998	 52.60	
  8.491	-11.296	106.36943	 71.52657	 21.78132	 44.32040	 42.03163	  0.88261	108.27405	700.16998	 52.60	
  8.502	-22.507	106.55792	 69.95599	 23.46167	 38.63507	 41.93143	  0.92211	108.31107	700.17999	 52.60	
  8.494	-33.806	106.68938	 67.17826	 26.08435	 34.10563	 41.60379	  0.97693	108.33659	700.28998	 52.60	
  8.495	-44.961	106.72923	 63.39894	 29.39311	 29.98699	 40.94400	  0.97690	108.31837	700.28998	 52.70	
  8.487	-56.277	106.69415	 58.82557	 33.43228	 26.47237	 40.19434	  0.97476	108.31217	700.38000	 52.70	
  8.492	-67.425	106.60838	 53.62491	 37.81351	 23.78324	 39.80937	  0.97578	108.27307	700.29999	 52.70	
  8.510	-78.780	106.43877	 48.13488	 42.89083	 21.90155	 39.28276	  0.87121	108.22005	700.34998	 52.70	
  8.500	-90.000	106.40213	 42.24200	 48.74393	 21.19839	 38.46630	  0.81803	108.24450	700.34998	 52.70	
  8.510	-101.220	106.26624	 36.61583	 53.99159	 21.54343	 37.50488	  0.78045	108.27947	700.33002	 52.70	
  8.492	-112.575	106.12455	 31.43624	 59.32173	 22.94139	 37.17129	  0.72728	108.32225	700.25000	 52.70	
  8.487	-123.723	105.89053	 26.56194	 64.33604	 25.21891	 36.93197	  0.30731	108.30161	700.34003	 52.70	
  8.495	-135.039	105.68492	 21.95815	 68.85291	 28.33341	 36.64950	  0.44988	108.31259	700.34003	 52.80	
  8.494	-146.194	105.37982	 18.26380	 72.54141	 32.02437	 35.98456	  0.29842	108.23698	700.28998	 52.80	
  8.502	-157.493	105.17999	 15.82681	 75.29748	 36.26501	 35.24675	  0.10150	108.26356	700.31000	 52.80	
  8.491	-168.704	104.95278	 14.38539	 76.81702	 41.09834	 34.62426	 -0.07674	108.27521	700.28003	 52.80	
  8.500	180.000	104.70945	 13.54070	 77.30621	 46.99207	 33.70523	 -0.23057	108.27289	700.41998	 52.80	
 10.200	180.000	102.88651	  7.35833	 81.69299	 44.90025	 32.63994	 -1.19891	108.22792	700.33002	 52.90	
 10.191	-170.497	103.11666	  7.97748	 81.32607	 39.48208	 31.98081	 -1.04399	108.25880	700.37000	 52.90	
 10.210	-161.034	103.41288	  9.17093	 80.08221	 34.80251	 32.07063	 -1.14784	108.32056	700.22998	 52.90	
 10.194	-151.526	103.65495	 11.41186	 77.68205	 30.14935	 32.61707	 -0.66446	108.22784	700.35999	 52.90	
 10.190	-142.105	103.85345	 14.20210	 74.51568	 26.04187	 33.27534	 -0.46304	108.19083	700.41998	 53.00	
 10.215	-132.646	104.07561	 17.70066	 70.44362	 22.18087	 33.79231	 -0.36271	108.21085	700.23999	 53.00	
 10.203	-123.092	104.31030	 22.43405	 65.85319	 19.05796	 34.05914	 -0.74481	108.22705	700.28998	 53.00	
 10.192	-113.678	104.53896	 27.60434	 60.80616	 16.88893	 34.26263	 -0.13163	108.25895	700.31000	 53.00	
 10.208	-104.249	104.76435	 32.94474	 55.41095	 15.38141	 34.23113	 -0.05300	108.29283	700.31000	 53.00	
 10.210	-94.801	104.88315	 38.11300	 50.07919	 14.75679	 34.30172	 -0.09016	108.23103	700.32001	 53.00	
 10.210	-85.199	105.05788	 44.33361	 44.44760	 14.98540	 34.86219	 -0.01601	108.27742	700.31000	 53.00	
 10.208	-75.751	105.63358	 50.30599	 39.44944	 17.75918	 73.32278	  0.32894	108.28152	700.29999	 53.00	
 10.192	-66.322	105.89524	 55.92643	 34.82269	 21.04618	 70.30797	  0.52959	108.23561	700.39001	 53.00	
 10.203	-56.908	105.95795	 61.18288	 30.17054	 23.82824	 67.08498	  0.52165	108.27556	700.34998	 53.00	
 10.215	-47.354	105.92815	 65.87835	 25.87948	 27.19839	 63.18186	  0.25378	108.31396	700.25000	 53.00	
 10.190	-37.895	105.79089	 69.86688	 22.06204	 31.19171	 58.53387	  0.41008	108.31519	700.33002	 53.10	
 10.194	-28.474	105.49497	 72.96383	 18.84906	 35.58130	 53.22264	  0.29092	108.28228	700.34998	 53.10	
 10.210	-18.966	105.24831	 75.16741	 16.61722	 40.08459	 47.81806	  0.18075	108.26702	700.33002	 53.10	
 10.191	 -9.503	104.99895	 76.33073	 15.48096	 45.84452	 41.78278	  0.10062	108.31171	700.26001	 53.10	
 10.200	  0.000	104.58930	 76.44566	 14.76599	 50.82276	 36.43342	  0.00059	108.30049	700.31000	 53.20	
 10.191	  9.503	104.20789	 75.46925	 14.98331	 56.40165	 30.76670	 -0.31514	108.30535	700.28003	 53.20	
 10.210	 18.966	103.83205	 73.60020	 15.90962	 61.63842	 25.26447	 -0.40390	108.31689	700.23999	 53.20	
 10.194	 28.474	103.55103	 70.61062	 17.70653	 66.74817	 19.84743	 -0.51142	108.40512	700.27002	 53.20	
 10.190	 37.895	103.18876	 66.72059	 20.12248	 71.49097	 15.43785	 -1.26835	108.36809	700.35999	 53.50	
 10.215	 47.354	102.84329	 62.39859	 23.30561	 75.76649	 11.73839	 -1.65126	108.40617	700.40002	 53.40	
 10.203	 56.908	102.48251	 57.25465	 27.65084	 78.99764	  8.81599	 -1.02773	108.41287	700.28003	 53.50	
 10.192	 66.322	102.24120	 51.94502	 32.20137	 81.48835	  6.58989	 -1.28117	108.48153	700.34003	 53.50	
 10.208	 75.751	101.92495	 46.51898	 36.97892	 83.02728	  5.07621	 -1.92745	108.41341	700.23999	 53.50	
 10.210	 85.199	101.76057	 40.29587	 42.10939	 83.69792	  4.29766	 -1.37085	108.43784	700.23999	 53.50	
 10.210	 94.801	101.56297	 34.93904	 47.69071	 83.41794	  4.10279	 -1.44764	108.40842	700.16998	 53.50	
 10.208	104.249	101.49451	 29.51826	 53.17121	 82.27143	  4.93522	 -1.49135	108.43725	700.21997	 53.50	
 10.192	113.678	101.51102	 24.17416	 58.71064	 80.09923	  6.63375	 -2.08640	108.43315	700.20001	 53.60	
 10.203	123.092	101.58362	 19.03705	 63.88762	 77.14286	  9.06382	 -1.93024	108.42612	700.31000	 53.60	
 10.215	132.646	101.67204	 15.02811	 68.75045	 73.39541	 12.00340	 -1.80518	108.44160	700.22998	 53.60	
 10.190	142.105	101.91070	 11.94899	 73.13992	 68.72499	 15.52692	 -1.73055	108.55614	700.21002	 53.60	
 10.194	151.526	102.08183	  9.46395	 76.75256	 63.77663	 19.72149	 -2.39549	108.52006	700.28003	 53.60	
 10.210	161.034	102.32699	  7.82068	 79.42470	 58.39434	 25.02893	 -2.30925	108.51350	700.28998	 53.60	
 10.191	170.497	102.61803	  7.16274	 81.07027	 53.01097	 30.62811	 -1.97821	108.46938	700.29999	 53.60	
 11.899	171.783	100.35647	  0.56862	 85.22445	 51.15226	 28.82856	 -3.12490	108.51833	700.25000	 53.70	
 11.890	163.610	 99.98801	  1.20523	 83.64899	 56.34281	 22.85783	 -3.37083	108.42838	700.33002	 53.70	
 11.889	155.445	 99.75860	  2.51440	 81.40161	 61.84375	 18.00055	 -3.57512	108.48371	700.22998	 53.70	
 11.909	147.299	 99.46382	  4.42183	 78.31644	 67.04498	 13.67586	 -3.71348	108.46676	700.22998	 53.70	
 11.902	139.148	 99.32613	  7.05134	 74.46563	 71.95231	  9.69361	 -3.33688	108.46249	700.21002	 53.70	
 11.894	130.867	 99.21331	 10.52084	 69.71248	 76.45995	  6.30412	 -3.37965	108.44748	700.27002	 53.70	
 11.897	122.732	 99.18241	 14.53754	 64.80714	 80.25503	  3.35477	 -3.22892	108.51000	700.29999	 53.70	
 11.903	114.597	 99.03296	 19.40415	 59.54771	 83.23969	  0.82447	 -3.20573	108.47189	700.29999	 53.70	
 11.893	106.346	 99.04659	 24.71957	 53.97485	 85.52895	 -0.90304	 -3.31101	108.48640	700.32001	 53.70	
 11.892	 98.155	 99.12195	 30.32737	 48.49674	 87.09173	 -1.91772	 -3.30420	108.48721	700.31000	 53.70	
 11.900	 90.000	 99.19182	 35.77873	 43.02739	 87.68660	 -1.99923	 -3.03754	108.45454	700.26001	 53.70	
 11.892	 81.845	 99.49344	 41.28525	 37.91723	 87.66242	 -1.41732	 -3.12837	108.44073	700.28003	 53.70	
 11.893	 73.654	 99.71517	 47.37173	 32.73565	 86.70815	 -0.54240	 -3.02973	108.52030	700.31000	 53.70	
 11.903	 65.403	 99.94409	 52.96220	 27.43810	 84.82614	  1.09964	 -2.85417	108.51381	700.38000	 53.70	
 11.897	 57.268	100.21046	 58.38178	 22.86199	 82.28265	  3.27230	 -2.71250	108.47461	700.37000	 53.70	
 11.894	 49.133	100.60371	 63.56087	 19.14942	 79.11290	  6.09828	 -2.68437	108.49190	700.27002	 53.70	
 11.902	 40.852	100.95759	 68.23730	 15.84698	 75.12540	  9.48655	 -2.55326	108.50268	700.32001	 53.70	
 11.909	 32.701	101.32092	 72.38393	 13.26962	 70.40067	 13.54617	 -1.81484	108.49859	700.25000	 53.70	
 11.889	 24.555	101.79384	 75.70470	 11.36661	 65.54121	 18.10692	 -1.68644	108.47682	700.19000	 53.80	
 11.890	 16.390	102.20637	 78.30429	  9.90472	 60.36007	 23.38252	 -1.44113	108.45847	700.25000	 53.80	
 11.899	  8.217	102.62498	 80.17944	  9.08794	 54.94062	 29.33367	 -1.26133	108.51102	700.28998	 53.80	
 11.900	  0.000	103.00954	 81.04675	  9.03456	 49.72218	 35.20102	 -1.03635	108.47983	700.23999	 53.80	
 11.899	 -8.217	103.37685	 81.07449	  9.59520	 44.31407	 40.75722	 -0.90116	108.53521	700.29999	 53.90	
 11.890	-16.390	103.76023	 80.04952	 10.82205	 39.26082	 46.27371	 -0.80443	108.55066	700.28998	 53.90	
 11.889	-24.555	104.03062	 78.15202	 12.48450	 34.30365	 51.91656	 -0.88859	108.51156	700.28998	 53.90	
 11.909	-32.701	104.21946	 75.56949	 14.80637	 29.53195	 57.56984	 -0.67555	108.56202	700.33002	 53.90	
 11.902	-40.852	104.39661	 72.06946	 17.80036	 25.24993	 62.59170	 -0.80020	108.54916	700.35999	 53.80	
 11.894	-49.133	104.47388	 67.64542	 21.59666	 21.28300	 67.12858	 -1.23909	108.49068	700.40997	 53.80	
 11.897	-57.268	104.56662	 62.96681	 26.19775	 17.63135	 71.28240	 -0.48517	108.54215	700.33002	 53.80	
 11.903	-65.403	104.55045	 57.71786	 30.93349	 15.13234	 74.55449	 -0.51890	108.48517	700.33002	 53.80	
 11.893	-73.654	104.55498	 52.19694	 36.00433	 13.24123	 76.84999	 -0.61721	108.54160	700.33002	 53.90	
 11.892	-81.845	104.51985	 46.64864	 41.03770	 12.25342	 78.06687	 -0.57774	108.55180	700.34003	 53.90	
 11.900	-90.000	104.39003	 40.58322	 46.64924	 11.73823	 78.55244	 -0.57569	108.59639	700.28003	 53.90	
 11.892	-98.155	104.14234	 35.13744	 51.98347	 11.75293	 78.00357	 -0.56217	108.53214	700.31000	 53.90	
 11.893	-106.346	103.93924	 29.50689	 57.50457	 12.39610	 76.63239	 -1.07247	108.53800	700.29999	 53.90	
 11.903	-114.597	103.70719	 23.97075	 62.93000	 13.91950	 74.18871	 -1.34920	108.55872	700.31000	 53.90	
 11.897	-122.732	103.45545	 18.50045	 67.92211	 16.12306	 70.84638	 -1.49879	108.57126	700.39001	 53.90	
 11.894	-130.867	103.11534	 14.13122	 72.64455	 18.90362	 66.72769	 -1.04299	108.52527	700.40002	 53.90	
 11.902	-139.148	102.71960	 10.27605	 76.86890	 22.19214	 62.12518	 -1.49190	108.55434	700.28003	 53.90	
 11.909	-147.299	102.39049	  7.05170	 80.32114	 26.31883	 57.16863	 -2.04117	108.62367	700.39001	 53.90	
 11.889	-155.445	101.94878	  4.46596	 82.87830	 30.75370	 51.95520	 -2.42469	108.57326	700.39001	 53.90	
 11.890	-163.610	101.52704	  2.59447	 84.58556	 35.48565	 45.71067	 -2.61289	108.52716	700.29999	 53.90	
 11.899	-171.783	101.11833	  1.27284	 85.68309	 40.39716	 40.16879	 -2.18635	108.52786	700.25000	 53.90	
 11.900	180.000	100.76150	  0.78489	 85.89053	 45.56532	 34.67600	 -2.92472	108.56139	700.25000	 53.90	
 13.600	180.000	 98.13993	 -5.81105	 89.75282	 43.56214	 32.69344	 -3.88521	108.51101	700.42999	 53.90	
 13.608	-172.853	 98.53989	 -5.38181	 89.69410	 38.43103	 38.39588	 -3.73560	108.55998	700.35999	 53.90	
 13.611	-165.583	 98.89301	 -4.21375	 88.83778	 33.31935	 43.69017	 -3.73034	108.58978	700.37000	 53.90	
 13.601	-158.353	 99.32874	 -2.51478	 87.02058	 28.34140	 49.77588	 -3.46419	108.55786	700.46002	 53.90	
 13.609	-151.210	 99.77850	 -0.21034	 84.73797	 23.48106	 55.38692	 -3.14469	108.57564	700.38000	 53.90	
 13.611	-143.999	100.18737	  2.59711	 81.84922	 19.48967	 60.81296	 -2.90033	108.57391	700.41998	 53.90	
 13.601	-136.825	100.48699	  5.88605	 78.16403	 15.96668	 65.71753	 -2.83458	108.51244	700.40997	 53.90	
 13.596	-129.640	100.88754	  9.87642	 73.83628	 12.96894	 70.24361	 -2.74449	108.54265	700.39001	 53.90	
