FileType=PCF
NHL=14
Date=08/27/17	14:05:45
Facility=APL
Serial=16328-9
Customer=NASA
NP=6
Mach=0.250000
Calibration=1:1
CalPts=490
TstPts=95
PortNumbering=AP Standard
Units=Torr C m/s kg/m^3 deg mm 
Theta[deg]	Phi[deg]	P1[Torr]	P2[Torr]	P3[Torr]	P4[Torr]	P5[Torr]	P6[Torr]	Pt[Torr]	Ps[Abs,Torr]	Ts[C]	
  0.000	  0.000	 30.33965	 16.20369	 16.09245	 16.33037	 16.11393	  0.30660	 30.29809	709.48999	 24.80	
  1.691	128.401	 30.33920	 15.25617	 16.98308	 17.51129	 14.89434	  0.30580	 30.29907	709.34100	 24.80	
  1.692	 77.194	 30.33986	 16.52700	 15.68429	 17.83936	 14.60271	  0.30008	 30.30260	709.35999	 24.80	
  1.699	 26.182	 30.29194	 17.55282	 14.66696	 16.97589	 15.36777	  0.30172	 30.24567	709.30200	 24.80	
  1.699	-26.182	 30.31956	 17.54260	 14.71739	 15.59954	 16.76098	  0.29374	 30.27451	709.48700	 24.80	
  1.692	-77.194	 30.33059	 16.47649	 15.74032	 14.81487	 17.59189	  0.28643	 30.28797	709.45599	 24.80	
  1.691	-128.401	 30.31467	 15.21198	 17.00127	 15.07204	 17.28692	  0.30215	 30.28304	709.42798	 24.80	
  1.700	180.000	 30.32799	 14.67799	 17.60128	 16.24553	 16.09483	  0.30603	 30.28574	709.42297	 24.80	
  3.400	180.000	 30.34188	 13.12441	 19.11551	 16.09200	 15.98110	  0.25745	 30.33948	709.47400	 24.80	
  3.388	-152.325	 30.29771	 13.41425	 18.71160	 14.67125	 17.39904	  0.24939	 30.29261	709.50702	 24.80	
  3.397	-124.529	 30.32660	 14.32811	 17.73576	 13.68813	 18.57027	  0.22633	 30.33127	709.47400	 24.80	
  3.399	-96.763	 30.28627	 15.63683	 16.31462	 13.20391	 19.06818	  0.18778	 30.28675	709.39502	 24.80	
  3.394	-69.283	 30.28592	 17.09369	 14.91132	 13.38120	 18.89870	  0.19908	 30.28488	709.34900	 24.80	
  3.400	-41.398	 30.26963	 18.37658	 13.70220	 14.16088	 18.01220	  0.20561	 30.28249	709.56897	 24.80	
  3.401	-14.021	 30.27518	 19.11725	 13.05834	 15.38654	 16.71464	  0.22992	 30.28106	709.43402	 24.80	
  3.401	 14.021	 30.26339	 19.12178	 13.01723	 16.91599	 15.19242	  0.25616	 30.27524	709.48102	 24.80	
  3.400	 41.398	 30.29835	 18.45381	 13.63478	 18.24994	 13.96784	  0.24951	 30.29927	709.56000	 24.80	
  3.394	 69.283	 30.27362	 17.16350	 14.76099	 19.10759	 13.15902	  0.25315	 30.27262	709.65100	 24.80	
  3.399	 96.763	 30.28948	 15.74893	 16.17042	 19.30659	 13.00717	  0.24857	 30.30077	709.41101	 24.80	
  3.397	124.529	 30.28767	 14.36703	 17.62257	 18.72899	 13.49203	  0.24445	 30.29458	709.51501	 24.80	
  3.388	152.325	 30.31355	 13.41493	 18.72451	 17.55220	 14.57494	  0.24467	 30.32166	709.45001	 24.70	
  5.099	161.165	 30.20159	 11.59060	 20.25517	 17.38769	 14.24102	  0.10361	 30.33390	709.44000	 24.70	
  5.109	142.013	 30.13505	 12.26192	 19.42357	 18.79416	 12.91549	  0.10020	 30.27352	709.36700	 24.70	
  5.095	123.033	 30.11337	 13.36781	 18.18966	 19.87729	 11.96976	  0.08120	 30.26224	709.46503	 24.70	
  5.105	104.191	 30.13852	 14.74416	 16.73500	 20.58330	 11.39372	  0.06475	 30.29664	709.53302	 24.70	
  5.093	 85.207	 30.13069	 16.19473	 15.18995	 20.71303	 11.30581	  0.08653	 30.27978	709.43103	 24.70	
  5.104	 66.290	 30.13342	 17.70724	 13.75022	 20.32636	 11.62241	  0.10073	 30.27035	709.51202	 24.70	
  5.094	 47.331	 30.15067	 19.09067	 12.54893	 19.44309	 12.41095	  0.12057	 30.29199	709.45001	 24.70	
  5.089	 28.397	 30.13420	 20.07684	 11.66823	 18.18734	 13.54256	  0.10039	 30.27276	709.53802	 24.70	
  5.096	  9.576	 30.15671	 20.60364	 11.25895	 16.70066	 14.95595	  0.09630	 30.30295	709.47900	 24.70	
  5.096	 -9.576	 30.13026	 20.57073	 11.28139	 15.10974	 16.48740	  0.05777	 30.29028	709.37799	 24.70	
  5.089	-28.397	 30.13183	 20.04136	 11.74820	 13.77197	 17.95686	  0.03643	 30.29785	709.38098	 24.70	
  5.094	-47.331	 30.13350	 19.02736	 12.64777	 12.62613	 19.23621	  0.00047	 30.28442	709.44202	 24.70	
  5.104	-66.290	 30.14074	 17.65944	 13.90168	 11.84013	 20.14265	 -0.02222	 30.29167	709.44800	 24.70	
  5.093	-85.207	 30.16375	 16.13284	 15.34459	 11.52199	 20.53930	 -0.02373	 30.30593	709.43298	 24.70	
  5.105	-104.191	 30.15645	 14.64545	 16.83358	 11.59118	 20.40951	  0.00276	 30.29697	709.40900	 24.70	
  5.095	-123.033	 30.16277	 13.30802	 18.28844	 12.12498	 19.73724	  0.04387	 30.28513	709.39203	 24.70	
  5.109	-142.013	 30.19487	 12.22074	 19.50547	 13.04372	 18.66313	  0.08407	 30.29941	709.38898	 24.70	
  5.099	-161.165	 30.18096	 11.58150	 20.25911	 14.30370	 17.23418	  0.11082	 30.28015	709.36700	 24.70	
  5.100	180.000	 30.18226	 11.36846	 20.52207	 15.79516	 15.70135	  0.10691	 30.29146	709.43402	 24.70	
  6.800	180.000	 29.95783	  9.52530	 21.90251	 15.48180	 15.39913	 -0.05533	 30.29485	709.54102	 24.70	
  6.796	-166.229	 29.94588	  9.66681	 21.69436	 13.99260	 16.88667	 -0.05462	 30.26009	709.37500	 24.70	
  6.808	-152.311	 29.96976	 10.13136	 21.15677	 12.67848	 18.37123	 -0.05391	 30.29051	709.34698	 24.70	
  6.795	-138.383	 29.98206	 10.95271	 20.26130	 11.52358	 19.71474	 -0.08792	 30.31225	709.43103	 24.70	
  6.792	-124.591	 29.93823	 12.03297	 19.05555	 10.61342	 20.77644	 -0.13228	 30.29731	709.35498	 24.70	
  6.787	-110.754	 29.91273	 13.30592	 17.65404	 10.02731	 21.50624	 -0.18133	 30.30671	709.41699	 24.70	
  6.800	-96.985	 29.87244	 14.67392	 16.15327	  9.72955	 21.86610	 -0.22752	 30.27308	709.41498	 24.70	
  6.800	-83.015	 29.89791	 16.19290	 14.69101	  9.75371	 21.88542	 -0.24963	 30.29922	709.47900	 24.70	
  6.787	-69.246	 29.87744	 17.68864	 13.28039	 10.07623	 21.50162	 -0.24820	 30.28391	709.49902	 24.70	
  6.792	-55.409	 29.85467	 19.07792	 11.97515	 10.67978	 20.76123	 -0.23302	 30.27015	709.37701	 24.70	
  6.795	-41.617	 29.85206	 20.28665	 10.89001	 11.61568	 19.69643	 -0.19343	 30.27216	709.50201	 24.70	
  6.808	-27.689	 29.87242	 21.23976	 10.06683	 12.79934	 18.37384	 -0.15966	 30.29886	709.38000	 24.70	
  6.796	-13.771	 29.86520	 21.80074	  9.59193	 14.12820	 16.90543	 -0.12939	 30.28894	709.37500	 24.70	
  6.800	  0.000	 29.85678	 22.00241	  9.39137	 15.59292	 15.39736	 -0.10115	 30.28399	709.48999	 24.70	
  6.796	 13.771	 29.90453	 21.84755	  9.53123	 17.15348	 13.98265	 -0.06917	 30.32523	709.48499	 24.70	
  6.808	 27.689	 29.88282	 21.27975	  9.96528	 18.60556	 12.58942	 -0.04403	 30.30082	709.40302	 24.70	
  6.795	 41.617	 29.85856	 20.34294	 10.75076	 19.87836	 11.40190	 -0.03971	 30.27119	709.49799	 24.60	
  6.792	 55.409	 29.89789	 19.18290	 11.82622	 20.95583	 10.45466	 -0.04462	 30.30524	709.44299	 24.60	
  6.787	 69.246	 29.85598	 17.76417	 13.08556	 21.66974	  9.77696	 -0.07688	 30.26348	709.42297	 24.60	
  6.800	 83.015	 29.86110	 16.27356	 14.49294	 22.07052	  9.44585	 -0.09351	 30.28109	709.22601	 24.70	
  6.800	 96.985	 29.82920	 14.81566	 15.97295	 22.04191	  9.43541	 -0.11521	 30.25266	709.27100	 24.70	
  6.787	110.754	 29.85141	 13.42091	 17.49842	 21.64025	  9.79491	 -0.12401	 30.27041	709.31598	 24.70	
  6.792	124.591	 29.87123	 12.13515	 18.91945	 20.88874	 10.44026	 -0.10698	 30.28021	709.33301	 24.70	
  6.795	138.383	 29.91389	 11.06471	 20.14668	 19.82401	 11.41131	 -0.07445	 30.30267	709.30499	 24.70	
  6.808	152.311	 29.90931	 10.20626	 21.08545	 18.50132	 12.57531	 -0.05645	 30.28560	709.33197	 24.70	
  6.796	166.229	 29.91723	  9.70981	 21.66309	 17.01476	 13.92919	 -0.04628	 30.27706	709.37701	 24.60	
  8.491	168.704	 29.55967	  7.83204	 22.95695	 16.67023	 13.50434	 -0.27353	 30.25566	709.35199	 24.70	
  8.502	157.493	 29.58317	  8.25171	 22.51315	 18.21250	 12.11561	 -0.26653	 30.31016	709.32898	 24.70	
  8.494	146.194	 29.55219	  8.94290	 21.70810	 19.62840	 10.81696	 -0.29356	 30.29858	709.25098	 24.70	
  8.495	135.039	 29.51988	  9.86164	 20.64738	 20.88654	  9.66718	 -0.33893	 30.28188	709.37799	 24.70	
  8.487	123.723	 29.47381	 11.00078	 19.34638	 21.90686	  8.77861	 -0.37098	 30.25548	709.41998	 24.70	
  8.492	112.575	 29.49891	 12.31274	 17.95661	 22.70669	  8.15474	 -0.38610	 30.28700	709.33197	 24.70	
  8.510	101.220	 29.48804	 13.73824	 16.41359	 23.19596	  7.73958	 -0.40362	 30.27969	709.24200	 24.70	
  8.500	 90.000	 29.46441	 15.17689	 14.86720	 23.32483	  7.65007	 -0.37346	 30.25448	709.27698	 24.60	
  8.510	 78.780	 29.48922	 16.69866	 13.38762	 23.20005	  7.75629	 -0.32709	 30.27921	709.24500	 24.70	
  8.492	 67.425	 29.48524	 18.21663	 11.94916	 22.71843	  8.15212	 -0.29798	 30.27348	709.37701	 24.60	
  8.487	 56.277	 29.48306	 19.60803	 10.66461	 21.97596	  8.79492	 -0.26410	 30.27391	709.31000	 24.60	
  8.495	 44.961	 29.43842	 20.84019	  9.50593	 20.91706	  9.68941	 -0.25550	 30.23549	709.38800	 24.60	
  8.494	 33.806	 29.46198	 21.87740	  8.64452	 19.69883	 10.83607	 -0.26014	 30.27060	709.27600	 24.60	
  8.502	 22.507	 29.47819	 22.66785	  8.01685	 18.30907	 12.15601	 -0.26870	 30.28636	709.26001	 24.60	
  8.491	 11.296	 29.44836	 23.11028	  7.66649	 16.79788	 13.54539	 -0.30203	 30.26519	709.27002	 24.60	
  8.500	  0.000	 29.46488	 23.27661	  7.58704	 15.23461	 15.03871	 -0.31521	 30.28167	709.40802	 24.60	
  8.491	-11.296	 29.46300	 23.09535	  7.74103	 13.71492	 16.55483	 -0.34690	 30.27523	709.32202	 24.60	
  8.502	-22.507	 29.45257	 22.61793	  8.12585	 12.32418	 18.05221	 -0.36873	 30.26803	709.26202	 24.60	
  8.494	-33.806	 29.44260	 21.82263	  8.81210	 11.02605	 19.49014	 -0.39514	 30.25073	709.40900	 24.60	
  8.495	-44.961	 29.46635	 20.79771	  9.72407	  9.92371	 20.75860	 -0.45123	 30.25985	709.22601	 24.60	
  8.487	-56.277	 29.46512	 19.52129	 10.85138	  9.04883	 21.77532	 -0.48495	 30.25839	709.43103	 24.60	
  8.492	-67.425	 29.46682	 18.11089	 12.14064	  8.41788	 22.54155	 -0.52320	 30.24953	709.50201	 24.60	
  8.510	-78.780	 29.48105	 16.58218	 13.57281	  7.99758	 23.03103	 -0.53329	 30.27283	709.37799	 24.60	
  8.500	-90.000	 29.47294	 15.03281	 15.04519	  7.87604	 23.15368	 -0.51038	 30.26031	709.41101	 24.60	
  8.510	-101.220	 29.49452	 13.58209	 16.55834	  7.97971	 23.01642	 -0.46723	 30.27246	709.52100	 24.60	
  8.492	-112.575	 29.50979	 12.17224	 18.08784	  8.34727	 22.52691	 -0.40526	 30.26826	709.39398	 24.60	
  8.487	-123.723	 29.53751	 10.88260	 19.48363	  8.94517	 21.78506	 -0.35389	 30.26201	709.44800	 24.60	
  8.495	-135.039	 29.59143	  9.73452	 20.76153	  9.81500	 20.78856	 -0.31641	 30.28442	709.41199	 24.60	
  8.494	-146.194	 29.60060	  8.79234	 21.77109	 10.90889	 19.51030	 -0.28383	 30.26285	709.33002	 24.60	
  8.502	-157.493	 29.59285	  8.13443	 22.52552	 12.18389	 18.05260	 -0.26110	 30.23677	709.42603	 24.60	
  8.491	-168.704	 29.64254	  7.80541	 23.00788	 13.59785	 16.58198	 -0.26631	 30.29637	709.36902	 24.60	
  8.500	180.000	 29.59529	  7.68266	 23.15015	 15.10866	 15.02351	 -0.26986	 30.27167	709.29901	 24.60	
 10.200	180.000	 29.10735	  5.92139	 24.30806	 14.64950	 14.56863	 -0.52651	 30.24949	709.32202	 24.60	
 10.191	-170.497	 29.14264	  6.01152	 24.19523	 13.13106	 16.13124	 -0.50741	 30.26392	709.21399	 24.60	
 10.210	-161.034	 29.15263	  6.26832	 23.82442	 11.68213	 17.65941	 -0.48303	 30.27807	709.45898	 24.60	
 10.194	-151.526	 29.15808	  6.78641	 23.16186	 10.33097	 19.17084	 -0.49637	 30.28268	709.48102	 24.60	
 10.190	-142.105	 29.12347	  7.49585	 22.25481	  9.11726	 20.52354	 -0.52532	 30.25905	709.41199	 24.60	
 10.215	-132.646	 29.11473	  8.43273	 21.18800	  8.06695	 21.75599	 -0.54127	 30.27923	709.37500	 24.60	
 10.203	-123.092	 29.07034	  9.62488	 19.87503	  7.21614	 22.76457	 -0.57098	 30.28143	709.35498	 24.60	
 10.192	-113.678	 29.02798	 10.95966	 18.44650	  6.58913	 23.54196	 -0.62570	 30.27762	709.33301	 24.60	
 10.208	-104.249	 29.02491	 12.37012	 16.95069	  6.18436	 24.10342	 -0.70431	 30.30515	709.37701	 24.60	
 10.210	-94.801	 29.00896	 13.82950	 15.39749	  5.99248	 24.38214	 -0.76240	 30.29988	709.42798	 24.60	
 10.210	-85.199	 29.01466	 15.37481	 13.87773	  5.99590	 24.40587	 -0.81035	 30.31531	709.38800	 24.60	
 10.208	-75.751	 28.93887	 16.89842	 12.35235	  6.22050	 24.08283	 -0.80357	 30.24065	709.41101	 24.60	
 10.192	-66.322	 28.95171	 18.42791	 10.95201	  6.67253	 23.53799	 -0.77605	 30.24456	709.39398	 24.60	
 10.203	-56.908	 28.95926	 19.86433	  9.64040	  7.31334	 22.75424	 -0.75810	 30.25072	709.36902	 24.60	
 10.215	-47.354	 28.95967	 21.18512	  8.47096	  8.17269	 21.73932	 -0.70278	 30.25426	709.21997	 24.60	
 10.190	-37.895	 28.96213	 22.29716	  7.55711	  9.22955	 20.53238	 -0.65726	 30.26239	709.26801	 24.60	
 10.194	-28.474	 28.92655	 23.19220	  6.78803	 10.43702	 19.15623	 -0.61146	 30.24496	709.19202	 24.60	
 10.210	-18.966	 28.96710	 23.91932	  6.22985	 11.82253	 17.66969	 -0.59702	 30.29088	709.29901	 24.60	
 10.191	 -9.503	 28.96325	 24.30710	  5.94337	 13.26334	 16.12707	 -0.58245	 30.28278	709.22302	 24.60	
 10.200	  0.000	 28.94095	 24.44206	  5.80059	 14.79136	 14.60213	 -0.57858	 30.26770	709.23401	 24.60	
 10.191	  9.503	 28.92421	 24.31179	  5.85913	 16.35787	 13.08555	 -0.55009	 30.25279	709.22302	 24.60	
 10.210	 18.966	 28.96920	 23.96623	  6.13982	 17.91244	 11.65117	 -0.51319	 30.29703	709.34900	 24.60	
 10.194	 28.474	 28.97178	 23.28992	  6.66993	 19.37157	 10.26850	 -0.49599	 30.29805	709.30798	 24.60	
 10.190	 37.895	 28.92339	 22.35092	  7.36680	 20.68241	  9.03981	 -0.48266	 30.23180	709.37701	 24.60	
 10.215	 47.354	 28.95447	 21.28321	  8.26463	 21.91160	  7.98916	 -0.47823	 30.26041	709.32397	 24.60	
 10.203	 56.908	 28.97907	 20.00347	  9.41080	 22.92533	  7.17629	 -0.48579	 30.28279	709.28998	 24.60	
 10.192	 66.322	 28.99212	 18.58303	 10.71548	 23.68786	  6.56067	 -0.50765	 30.27947	709.23700	 24.60	
 10.208	 75.751	 28.98505	 17.07692	 12.12483	 24.23600	  6.11116	 -0.57463	 30.28310	709.33801	 24.60	
 10.210	 85.199	 28.95493	 15.50918	 13.59996	 24.48667	  5.88350	 -0.64356	 30.25628	709.42798	 24.60	
 10.210	 94.801	 28.95303	 14.01129	 15.16251	 24.46879	  5.87714	 -0.69263	 30.24666	709.27600	 24.60	
 10.208	104.249	 28.97182	 12.54418	 16.73805	 24.20357	  6.08404	 -0.70029	 30.26289	709.28699	 24.60	
 10.192	113.678	 29.03372	 11.17608	 18.29114	 23.68377	  6.53377	 -0.67375	 30.31278	709.15802	 24.60	
 10.203	123.092	 28.99304	  9.86246	 19.68748	 22.86967	  7.13150	 -0.64744	 30.26173	709.31299	 24.60	
 10.215	132.646	 29.01350	  8.64800	 21.02107	 21.86366	  7.96651	 -0.60910	 30.27104	709.27399	 24.60	
 10.190	142.105	 29.07707	  7.70528	 22.17394	 20.66992	  9.04443	 -0.56197	 30.31371	709.28699	 24.60	
 10.194	151.526	 29.07047	  6.95460	 23.06735	 19.27361	 10.24681	 -0.51427	 30.27776	709.21100	 24.60	
 10.210	161.034	 29.05504	  6.35647	 23.73485	 17.77011	 11.55784	 -0.49296	 30.24725	709.26202	 24.60	
 10.191	170.497	 29.12621	  6.05009	 24.18396	 16.26254	 13.04035	 -0.51683	 30.29632	709.25299	 24.60	
 11.899	171.783	 28.50199	  4.24099	 25.26841	 15.72280	 12.47462	 -0.75880	 30.25592	709.20300	 24.60	
 11.890	163.610	 28.50060	  4.55692	 24.90278	 17.29623	 11.04442	 -0.73314	 30.26626	709.23901	 24.60	
 11.889	155.445	 28.46523	  5.03089	 24.29712	 18.80378	  9.67106	 -0.71765	 30.25713	709.22803	 24.60	
 11.909	147.299	 28.43343	  5.63071	 23.50071	 20.25254	  8.37341	 -0.75497	 30.25849	709.29401	 24.60	
 11.902	139.148	 28.42640	  6.45225	 22.49718	 21.57761	  7.25295	 -0.82261	 30.27184	709.30103	 24.60	
 11.894	130.867	 28.44432	  7.40365	 21.30867	 22.74772	  6.30443	 -0.86467	 30.29446	709.29797	 24.60	
 11.897	122.732	 28.40528	  8.50964	 19.97011	 23.73088	  5.52575	 -0.91463	 30.28332	709.30499	 24.60	
 11.903	114.597	 28.38324	  9.85977	 18.53864	 24.54156	  4.87632	 -0.96474	 30.27714	709.29102	 24.60	
 11.893	106.346	 28.34877	 11.28229	 16.97265	 25.10199	  4.44152	 -0.98554	 30.24801	709.30701	 24.60	
 11.892	 98.155	 28.40219	 12.78069	 15.43505	 25.50565	  4.20247	 -1.00147	 30.30171	709.28497	 24.60	
 11.900	 90.000	 28.36199	 14.25359	 13.85853	 25.59803	  4.11858	 -0.97433	 30.27303	709.21997	 24.60	
 11.892	 81.845	 28.40337	 15.79697	 12.34521	 25.50934	  4.23226	 -0.89640	 30.30979	709.15198	 24.60	
 11.893	 73.654	 28.36458	 17.32883	 10.84079	 25.11739	  4.53023	 -0.81344	 30.26569	709.28497	 24.60	
 11.903	 65.403	 28.39720	 18.86831	  9.47833	 24.57325	  5.00241	 -0.73245	 30.29921	709.20001	 24.60	
 11.897	 57.268	 28.32797	 20.25273	  8.18888	 23.72731	  5.61103	 -0.68253	 30.23992	709.12701	 24.60	
 11.894	 49.133	 28.33151	 21.57057	  7.05878	 22.75176	  6.39941	 -0.68245	 30.25328	709.26202	 24.60	
 11.902	 40.852	 28.35914	 22.77037	  6.13360	 21.63121	  7.29994	 -0.71418	 30.29949	709.24500	 24.60	
 11.909	 32.701	 28.31369	 23.72113	  5.35892	 20.29970	  8.40399	 -0.73735	 30.25741	709.17499	 24.60	
 11.889	 24.555	 28.37734	 24.55168	  4.80063	 18.91298	  9.69986	 -0.73886	 30.32416	709.28198	 24.60	
 11.890	 16.390	 28.31807	 25.07487	  4.34569	 17.39959	 11.05166	 -0.76384	 30.27575	709.13501	 24.60	
 11.899	  8.217	 28.31225	 25.42383	  4.07244	 15.86350	 12.54066	 -0.78802	 30.27544	709.05402	 24.60	
 11.900	  0.000	 28.32257	 25.53123	  4.02140	 14.27660	 14.08714	 -0.79797	 30.27743	709.17999	 24.60	
 11.899	 -8.217	 28.33718	 25.41008	  4.15128	 12.74391	 15.62156	 -0.80494	 30.28348	709.26001	 24.60	
 11.890	-16.390	 28.38976	 25.09458	  4.42505	 11.28520	 17.19719	 -0.81237	 30.33514	709.38599	 24.60	
 11.889	-24.555	 28.35851	 24.48837	  4.85633	  9.85389	 18.70577	 -0.80549	 30.30486	709.28497	 24.60	
 11.909	-32.701	 28.33551	 23.66729	  5.47059	  8.53661	 20.12583	 -0.83818	 30.26337	709.30200	 24.60	
 11.902	-40.852	 28.35979	 22.66602	  6.31438	  7.41868	 21.43850	 -0.87193	 30.26288	709.30200	 24.60	
 11.894	-49.133	 28.38063	 21.48715	  7.26988	  6.44146	 22.64907	 -0.92312	 30.28481	709.18903	 24.60	
 11.897	-57.268	 28.35850	 20.15367	  8.33918	  5.63942	 23.63123	 -0.96110	 30.27452	709.30798	 24.60	
 11.903	-65.403	 28.35328	 18.70754	  9.60238	  4.99779	 24.42527	 -0.99203	 30.25900	709.39398	 24.60	
 11.893	-73.654	 28.36682	 17.18153	 11.06824	  4.56035	 25.00454	 -1.00084	 30.26960	709.25897	 24.60	
 11.892	-81.845	 28.36080	 15.60790	 12.57736	  4.28983	 25.33169	 -1.01580	 30.25377	709.26202	 24.60	
 11.900	-90.000	 28.39193	 14.06810	 14.11270	  4.18660	 25.46829	 -1.00112	 30.29513	709.28400	 24.60	
 11.892	-98.155	 28.35792	 12.56366	 15.61528	  4.25967	 25.30678	 -0.95712	 30.24389	709.34601	 24.60	
 11.893	-106.346	 28.37188	 11.06097	 17.17982	  4.49622	 24.97469	 -0.89502	 30.25234	709.26001	 24.60	
 11.903	-114.597	 28.43765	  9.61366	 18.73014	  4.91237	 24.44685	 -0.82417	 30.29429	709.30499	 24.60	
 11.897	-122.732	 28.45667	  8.34077	 20.13704	  5.53197	 23.61675	 -0.76829	 30.25736	709.26202	 24.60	
 11.894	-130.867	 28.53645	  7.21445	 21.48343	  6.33333	 22.63828	 -0.75122	 30.30238	709.28497	 24.60	
 11.902	-139.148	 28.54816	  6.26960	 22.64771	  7.31432	 21.42150	 -0.73288	 30.28183	709.21198	 24.60	
 11.909	-147.299	 28.56923	  5.49738	 23.62900	  8.43127	 20.11795	 -0.74141	 30.28057	709.33801	 24.60	
 11.889	-155.445	 28.57907	  4.89242	 24.40628	  9.71318	 18.68009	 -0.72497	 30.27702	709.35699	 24.60	
 11.890	-163.610	 28.58508	  4.47186	 24.97612	 11.13016	 17.15093	 -0.73319	 30.28678	709.41199	 24.60	
 11.899	-171.783	 28.57901	  4.22796	 25.32980	 12.61051	 15.60792	 -0.76970	 30.29244	709.22302	 24.60	
 11.900	180.000	 28.53156	  4.13369	 25.41649	 14.13532	 14.03291	 -0.79430	 30.26627	709.26202	 24.60	
 13.600	180.000	 27.80284	  2.35225	 26.37183	 13.53295	 13.41562	 -1.02291	 30.23963	709.43103	 24.60	
 13.608	-172.853	 27.82278	  2.42097	 26.28840	 12.02250	 14.94707	 -1.02102	 30.24395	709.24597	 24.60	
 13.611	-165.583	 27.87256	  2.63196	 26.03527	 10.53801	 16.53280	 -0.97947	 30.27788	709.24200	 24.60	
 13.601	-158.353	 27.84965	  3.01956	 25.49675	  9.10235	 18.07049	 -0.96122	 30.24936	709.11902	 24.60	
 13.609	-151.210	 27.87934	  3.55391	 24.84546	  7.81362	 19.56312	 -0.97033	 30.29388	709.14899	 24.60	
 13.611	-143.999	 27.87640	  4.23931	 23.96710	  6.62006	 20.95772	 -0.95519	 30.29336	709.30798	 24.60	
 13.601	-136.825	 27.82515	  5.04090	 22.89182	  5.53504	 22.22440	 -0.93010	 30.26775	709.19702	 24.50	
 13.596	-129.640	 27.80911	  5.99505	 21.68711	  4.65106	 23.39611	 -0.93301	 30.28530	709.25299	 24.60	
