FileType=PCF
NHL=14
Date=08/26/17	14:19:01
Facility=APL
Serial=16328-9
Customer=NASA
NP=6
Mach=0.050000
Calibration=1:1
CalPts=490
TstPts=95
PortNumbering=AP Standard
Units=Torr C m/s kg/m^3 deg mm 
Theta[deg]	Phi[deg]	P1[Torr]	P2[Torr]	P3[Torr]	P4[Torr]	P5[Torr]	P6[Torr]	Pt[Torr]	Ps[Abs,Torr]	Ts[C]	
  0.000	  0.000	  1.27802	  0.71033	  0.68471	  0.70069	  0.70107	  0.00543	  1.26998	709.30200	 23.20	
  1.691	128.401	  1.28188	  0.66671	  0.72516	  0.74831	  0.65102	  0.00612	  1.27261	709.13300	 23.20	
  1.692	 77.194	  1.28153	  0.71027	  0.67684	  0.75946	  0.64299	  0.00630	  1.27262	709.16400	 23.20	
  1.699	 26.182	  1.28246	  0.75203	  0.64219	  0.72681	  0.66985	  0.00513	  1.27384	709.22601	 23.20	
  1.699	-26.182	  1.27883	  0.74946	  0.63914	  0.67404	  0.71854	  0.00349	  1.27066	709.28198	 23.20	
  1.692	-77.194	  1.27885	  0.70938	  0.67388	  0.64555	  0.75340	  0.00416	  1.27076	709.21802	 23.20	
  1.691	-128.401	  1.27856	  0.65747	  0.72673	  0.65437	  0.74097	  0.00490	  1.27072	709.23401	 23.20	
  1.700	180.000	  1.27653	  0.63953	  0.74870	  0.69730	  0.69104	  0.00573	  1.26719	709.22900	 23.20	
  3.400	180.000	  1.27377	  0.57306	  0.80946	  0.69111	  0.68464	  0.00243	  1.26687	709.11798	 23.20	
  3.388	-152.325	  1.27712	  0.58405	  0.79783	  0.63687	  0.74506	  0.00141	  1.27023	709.39398	 23.20	
  3.397	-124.529	  1.27189	  0.61707	  0.75202	  0.59381	  0.78909	  0.00000	  1.26727	709.30103	 23.10	
  3.399	-96.763	  1.27332	  0.67110	  0.69606	  0.57571	  0.81197	 -0.00208	  1.26827	709.32898	 23.10	
  3.394	-69.283	  1.27800	  0.73367	  0.64043	  0.58654	  0.80734	 -0.00198	  1.27383	709.23901	 23.10	
  3.400	-41.398	  1.27771	  0.78604	  0.59568	  0.61674	  0.77219	 -0.00008	  1.27285	709.26001	 23.10	
  3.401	-14.021	  1.27461	  0.81267	  0.57097	  0.66182	  0.71783	  0.00158	  1.26818	709.20599	 23.10	
  3.401	 14.021	  1.28028	  0.81685	  0.57490	  0.72558	  0.66127	  0.00251	  1.27308	709.34100	 23.10	
  3.400	 41.398	  1.27996	  0.78922	  0.59788	  0.77891	  0.61355	  0.00437	  1.27215	709.31799	 23.10	
  3.394	 69.283	  1.27957	  0.73769	  0.64166	  0.81452	  0.58296	  0.00327	  1.27141	709.30701	 23.10	
  3.399	 96.763	  1.27772	  0.67826	  0.69805	  0.82111	  0.57596	  0.00275	  1.26955	709.33197	 23.10	
  3.397	124.529	  1.27661	  0.62667	  0.75336	  0.79852	  0.59353	  0.00405	  1.26845	709.23401	 23.10	
  3.388	152.325	  1.27494	  0.58939	  0.79470	  0.75141	  0.63069	  0.00436	  1.26786	709.21399	 23.10	
  5.099	161.165	  1.27565	  0.51557	  0.86346	  0.74862	  0.62043	 -0.00157	  1.27316	709.26202	 23.10	
  5.109	142.013	  1.27560	  0.54546	  0.83058	  0.80708	  0.56990	 -0.00196	  1.27342	709.27100	 23.10	
  5.095	123.033	  1.27720	  0.59020	  0.78377	  0.85258	  0.53551	 -0.00039	  1.27342	709.14099	 23.10	
  5.105	104.191	  1.27983	  0.64434	  0.72639	  0.88144	  0.51489	 -0.00057	  1.27563	709.13501	 23.10	
  5.093	 85.207	  1.27480	  0.70320	  0.66205	  0.88335	  0.50886	  0.00041	  1.27139	709.30200	 23.10	
  5.104	 66.290	  1.27669	  0.76407	  0.60374	  0.86794	  0.52117	 -0.00129	  1.27281	709.28497	 23.10	
  5.094	 47.331	  1.27456	  0.81802	  0.55442	  0.83092	  0.55126	  0.00167	  1.27124	709.46698	 23.10	
  5.089	 28.397	  1.27245	  0.85601	  0.51934	  0.77767	  0.59431	 -0.00056	  1.26915	709.25403	 23.10	
  5.096	  9.576	  1.27485	  0.87881	  0.50265	  0.71862	  0.65174	 -0.00252	  1.27339	709.27698	 23.10	
  5.096	 -9.576	  1.27132	  0.87540	  0.50053	  0.65353	  0.71153	 -0.00525	  1.27191	709.21198	 23.10	
  5.089	-28.397	  1.27185	  0.85366	  0.51921	  0.59891	  0.77121	 -0.00492	  1.27248	709.22601	 23.10	
  5.094	-47.331	  1.27249	  0.81194	  0.55356	  0.55277	  0.82303	 -0.00843	  1.27444	709.20801	 23.10	
  5.104	-66.290	  1.27137	  0.75705	  0.60042	  0.52118	  0.85925	 -0.00883	  1.27267	709.27002	 23.10	
  5.093	-85.207	  1.27204	  0.69500	  0.65794	  0.50587	  0.87512	 -0.01001	  1.27310	709.24500	 23.10	
  5.105	-104.191	  1.26626	  0.63060	  0.71960	  0.50885	  0.86576	 -0.00722	  1.26740	709.30499	 23.10	
  5.095	-123.033	  1.26978	  0.57898	  0.77948	  0.53305	  0.83998	 -0.00489	  1.27065	709.22803	 23.10	
  5.109	-142.013	  1.27200	  0.53832	  0.82953	  0.57298	  0.79616	 -0.00345	  1.27139	709.29901	 23.10	
  5.099	-161.165	  1.27439	  0.51186	  0.86239	  0.62319	  0.74122	 -0.00386	  1.27339	709.30499	 23.10	
  5.100	180.000	  1.27764	  0.50486	  0.87643	  0.68525	  0.68155	 -0.00183	  1.27559	707.87701	 23.10	
  6.800	180.000	  1.26848	  0.43344	  0.93303	  0.67434	  0.66891	 -0.00830	  1.27542	709.32098	 23.10	
  6.796	-166.229	  1.26477	  0.43899	  0.92129	  0.61381	  0.72695	 -0.00775	  1.27117	709.32098	 23.10	
  6.808	-152.311	  1.26556	  0.45611	  0.89984	  0.55928	  0.78657	 -0.00880	  1.27412	709.29102	 23.10	
  6.795	-138.383	  1.26043	  0.48464	  0.85840	  0.50915	  0.83704	 -0.01183	  1.26952	709.28400	 23.10	
  6.792	-124.591	  1.25959	  0.52666	  0.80977	  0.47241	  0.88001	 -0.01244	  1.26909	709.32098	 23.10	
  6.787	-110.754	  1.25955	  0.57830	  0.75385	  0.44841	  0.91183	 -0.01300	  1.27197	709.17499	 23.10	
  6.800	-96.985	  1.25503	  0.63192	  0.69180	  0.43345	  0.92535	 -0.01601	  1.26701	709.06598	 23.10	
  6.800	-83.015	  1.26267	  0.69882	  0.63311	  0.43691	  0.93149	 -0.01745	  1.27573	709.35199	 23.10	
  6.787	-69.246	  1.25675	  0.75598	  0.57426	  0.44854	  0.91168	 -0.01700	  1.26960	709.24200	 23.10	
  6.792	-55.409	  1.25680	  0.81394	  0.52114	  0.47117	  0.88251	 -0.01773	  1.26996	709.35999	 23.10	
  6.795	-41.617	  1.25609	  0.86209	  0.48072	  0.50982	  0.83799	 -0.01513	  1.26735	709.22900	 23.10	
  6.808	-27.689	  1.25786	  0.90203	  0.45022	  0.55900	  0.78521	 -0.01252	  1.26880	709.32898	 23.10	
  6.796	-13.771	  1.25871	  0.92535	  0.43200	  0.61349	  0.72773	 -0.01068	  1.26881	709.32898	 23.10	
  6.800	  0.000	  1.25578	  0.93183	  0.42416	  0.67069	  0.66553	 -0.00933	  1.26533	709.36102	 23.10	
  6.796	 13.771	  1.25738	  0.92585	  0.43152	  0.73252	  0.60809	 -0.00893	  1.26481	709.44202	 23.10	
  6.808	 27.689	  1.25988	  0.90353	  0.45131	  0.79278	  0.55407	 -0.00779	  1.26697	709.33002	 23.10	
  6.795	 41.617	  1.26021	  0.86806	  0.48416	  0.84601	  0.51001	 -0.00553	  1.26596	709.28400	 23.10	
  6.792	 55.409	  1.26500	  0.82299	  0.52728	  0.89121	  0.47586	 -0.00542	  1.27097	709.18103	 23.10	
  6.787	 69.246	  1.26196	  0.76613	  0.57654	  0.92062	  0.44969	 -0.00546	  1.26744	709.18701	 23.10	
  6.800	 83.015	  1.26174	  0.70618	  0.63258	  0.93633	  0.43615	 -0.00704	  1.26752	709.21997	 23.10	
  6.800	 96.985	  1.26930	  0.64883	  0.69829	  0.94222	  0.43893	 -0.00746	  1.27481	709.21399	 23.10	
  6.787	110.754	  1.26282	  0.58841	  0.75583	  0.92127	  0.45028	 -0.00751	  1.26826	709.12500	 23.10	
  6.792	124.591	  1.26603	  0.53833	  0.81352	  0.89344	  0.47422	 -0.00844	  1.27203	709.13800	 23.10	
  6.795	138.383	  1.26724	  0.49701	  0.86268	  0.85021	  0.51092	 -0.00725	  1.27318	709.20398	 23.10	
  6.808	152.311	  1.26526	  0.46229	  0.89909	  0.79617	  0.55430	 -0.00715	  1.27241	709.21997	 23.10	
  6.796	166.229	  1.26289	  0.44072	  0.92035	  0.73461	  0.60678	 -0.00687	  1.26979	709.27899	 23.10	
  8.491	168.704	  1.24984	  0.36778	  0.97524	  0.72183	  0.59072	 -0.01470	  1.27056	709.24298	 23.10	
  8.502	157.493	  1.25405	  0.38477	  0.95950	  0.78520	  0.53678	 -0.01510	  1.27435	709.30200	 23.10	
  8.494	146.194	  1.25173	  0.41268	  0.92610	  0.84225	  0.48575	 -0.01563	  1.27179	709.35999	 23.10	
  8.495	135.039	  1.24568	  0.44580	  0.87948	  0.88905	  0.44056	 -0.01713	  1.26568	709.27899	 23.10	
  8.487	123.723	  1.24856	  0.49298	  0.82958	  0.93350	  0.40879	 -0.01610	  1.26872	709.22900	 23.10	
  8.492	112.575	  1.25300	  0.54354	  0.77669	  0.96899	  0.38337	 -0.01741	  1.27420	709.27002	 23.10	
  8.510	101.220	  1.25006	  0.60301	  0.71173	  0.98838	  0.36746	 -0.01617	  1.26981	709.18903	 23.10	
  8.500	 90.000	  1.25317	  0.66557	  0.65086	  0.99721	  0.36353	 -0.01652	  1.27335	709.17499	 23.10	
  8.510	 78.780	  1.25305	  0.72735	  0.59074	  0.99053	  0.36879	 -0.01403	  1.27292	709.28998	 23.10	
  8.492	 67.425	  1.25093	  0.78664	  0.52986	  0.96745	  0.38240	 -0.01476	  1.27058	709.27600	 23.10	
  8.487	 56.277	  1.24892	  0.84198	  0.48025	  0.93584	  0.40851	 -0.01243	  1.26940	709.26703	 23.10	
  8.495	 44.961	  1.24900	  0.89330	  0.43581	  0.89334	  0.44296	 -0.01314	  1.26983	709.31598	 23.10	
  8.494	 33.806	  1.24755	  0.93408	  0.39994	  0.84070	  0.48579	 -0.01315	  1.26897	709.34100	 23.10	
  8.502	 22.507	  1.24570	  0.96411	  0.37396	  0.78409	  0.53527	 -0.01418	  1.26831	709.37201	 23.10	
  8.491	 11.296	  1.24803	  0.98425	  0.35890	  0.72342	  0.59317	 -0.01720	  1.27181	709.29797	 23.10	
  8.500	  0.000	  1.24308	  0.98686	  0.35237	  0.65788	  0.65208	 -0.01903	  1.26867	709.21997	 23.10	
  8.491	-11.296	  1.24588	  0.98207	  0.35937	  0.59821	  0.71678	 -0.01808	  1.27213	709.37799	 23.10	
  8.502	-22.507	  1.24007	  0.95649	  0.37241	  0.53750	  0.77397	 -0.02064	  1.26627	709.33197	 23.10	
  8.494	-33.806	  1.23822	  0.92261	  0.39857	  0.48514	  0.83054	 -0.02218	  1.26541	709.14203	 23.10	
  8.495	-44.961	  1.23658	  0.87926	  0.43160	  0.44039	  0.88025	 -0.02558	  1.26438	709.33801	 23.10	
  8.487	-56.277	  1.23591	  0.82612	  0.47420	  0.40407	  0.92039	 -0.02711	  1.26441	709.16901	 23.10	
  8.492	-67.425	  1.24289	  0.77173	  0.52922	  0.38085	  0.95628	 -0.02778	  1.27010	709.22198	 23.10	
  8.510	-78.780	  1.24220	  0.71141	  0.58442	  0.36416	  0.97523	 -0.02813	  1.27038	709.25299	 23.10	
  8.500	-90.000	  1.24291	  0.64877	  0.64809	  0.35957	  0.98229	 -0.02675	  1.27162	709.25598	 23.20	
  8.510	-101.220	  1.24458	  0.58867	  0.71048	  0.36486	  0.97658	 -0.02427	  1.27275	709.32898	 23.20	
  8.492	-112.575	  1.24466	  0.53005	  0.77234	  0.37991	  0.95575	 -0.02192	  1.27218	709.37201	 23.20	
  8.487	-123.723	  1.24619	  0.47922	  0.83040	  0.40588	  0.92371	 -0.02067	  1.27133	709.20599	 23.20	
  8.495	-135.039	  1.24793	  0.43629	  0.88283	  0.44178	  0.88270	 -0.01904	  1.27158	709.27002	 23.10	
  8.494	-146.194	  1.24989	  0.40191	  0.92461	  0.48538	  0.83197	 -0.01836	  1.27245	709.03998	 23.10	
  8.502	-157.493	  1.25319	  0.37980	  0.95864	  0.54047	  0.77545	 -0.01513	  1.27315	709.20398	 23.20	
  8.491	-168.704	  1.25434	  0.36755	  0.97789	  0.59864	  0.71589	 -0.01544	  1.27459	709.04303	 23.20	
  8.500	180.000	  1.25718	  0.36276	  0.98837	  0.66168	  0.65529	 -0.01555	  1.27679	709.11902	 23.20	
 10.200	180.000	  1.23329	  0.28479	  1.03394	  0.63965	  0.63350	 -0.02517	  1.27298	709.15002	 23.20	
 10.191	-170.497	  1.23180	  0.28851	  1.02554	  0.57669	  0.69453	 -0.02397	  1.27052	709.13202	 23.20	
 10.210	-161.034	  1.23235	  0.29958	  1.01053	  0.51786	  0.75725	 -0.02439	  1.27189	709.16699	 23.20	
 10.194	-151.526	  1.23166	  0.32182	  0.98166	  0.46286	  0.81718	 -0.02376	  1.27280	709.21198	 23.20	
 10.190	-142.105	  1.22877	  0.34820	  0.94392	  0.41316	  0.87187	 -0.02647	  1.27125	709.30103	 23.20	
 10.215	-132.646	  1.23117	  0.38552	  0.90021	  0.37200	  0.92356	 -0.02943	  1.27442	709.21198	 23.20	
 10.203	-123.092	  1.22040	  0.42825	  0.84130	  0.33587	  0.95856	 -0.02905	  1.26538	709.27100	 23.20	
 10.192	-113.678	  1.22601	  0.48115	  0.78701	  0.31142	  0.99649	 -0.03126	  1.27239	709.22803	 23.20	
 10.208	-104.249	  1.22474	  0.53649	  0.72498	  0.29170	  1.02053	 -0.03611	  1.27416	709.20300	 23.20	
 10.210	-94.801	  1.22126	  0.59668	  0.66016	  0.28375	  1.02942	 -0.03844	  1.27131	709.16699	 23.20	
 10.210	-85.199	  1.22430	  0.66226	  0.59669	  0.28377	  1.03248	 -0.04040	  1.27435	709.32098	 23.20	
 10.208	-75.751	  1.22143	  0.72423	  0.53562	  0.29374	  1.01866	 -0.03747	  1.27204	709.23901	 23.20	
 10.192	-66.322	  1.21950	  0.78379	  0.47900	  0.31059	  0.99503	 -0.03853	  1.26850	709.30103	 23.20	
 10.203	-56.908	  1.22025	  0.84343	  0.42846	  0.33804	  0.96412	 -0.03677	  1.26978	709.28198	 23.20	
 10.215	-47.354	  1.22435	  0.90063	  0.38524	  0.37510	  0.92460	 -0.03629	  1.27318	709.26001	 23.20	
 10.190	-37.895	  1.22119	  0.94540	  0.34256	  0.41057	  0.87636	 -0.03522	  1.27043	709.25299	 23.20	
 10.194	-28.474	  1.22196	  0.98358	  0.31796	  0.46389	  0.81956	 -0.03000	  1.26979	709.23102	 23.20	
 10.210	-18.966	  1.22232	  1.01119	  0.29529	  0.51790	  0.75933	 -0.02849	  1.26945	709.30701	 23.20	
 10.191	 -9.503	  1.22637	  1.03170	  0.28401	  0.57922	  0.69790	 -0.02894	  1.27223	709.24597	 23.20	
 10.200	  0.000	  1.22392	  1.03607	  0.27845	  0.63894	  0.63549	 -0.02668	  1.26871	709.18298	 23.20	
 10.191	  9.503	  1.22769	  1.03467	  0.28456	  0.70656	  0.57436	 -0.02582	  1.27229	709.28198	 23.20	
 10.210	 18.966	  1.22793	  1.01878	  0.29778	  0.76872	  0.51729	 -0.02285	  1.27098	709.22803	 23.20	
 10.194	 28.474	  1.23144	  0.99470	  0.32021	  0.83068	  0.46503	 -0.02218	  1.27343	709.27002	 23.20	
 10.190	 37.895	  1.23289	  0.95913	  0.34992	  0.88718	  0.41705	 -0.02149	  1.27416	709.17999	 23.20	
 10.215	 47.354	  1.23417	  0.91510	  0.38808	  0.93831	  0.37612	 -0.02179	  1.27548	709.20599	 23.20	
 10.203	 56.908	  1.23287	  0.86109	  0.43445	  0.97845	  0.34341	 -0.02068	  1.27228	709.12402	 23.20	
 10.192	 66.322	  1.23353	  0.80346	  0.48538	  1.00998	  0.31878	 -0.02229	  1.27272	709.15002	 23.20	
 10.208	 75.751	  1.22950	  0.74145	  0.53776	  1.02830	  0.29979	 -0.02364	  1.26788	709.18402	 23.20	
 10.210	 85.199	  1.23593	  0.68139	  0.60305	  1.04665	  0.29203	 -0.02587	  1.27530	709.20801	 23.20	
 10.210	 94.801	  1.22789	  0.61398	  0.66250	  1.04016	  0.28957	 -0.02601	  1.26802	709.16400	 23.20	
 10.208	104.249	  1.23154	  0.55533	  0.72776	  1.03051	  0.30053	 -0.02539	  1.27066	709.28400	 23.20	
 10.192	113.678	  1.22968	  0.49734	  0.78740	  1.00637	  0.31643	 -0.02705	  1.26828	709.28497	 23.20	
 10.203	123.092	  1.22902	  0.44451	  0.84535	  0.97417	  0.33945	 -0.02774	  1.26861	709.24597	 23.20	
 10.215	132.646	  1.23233	  0.39756	  0.90151	  0.93490	  0.37225	 -0.02904	  1.27277	709.19702	 23.20	
 10.190	142.105	  1.23029	  0.36081	  0.94470	  0.88356	  0.41360	 -0.02425	  1.27009	707.65198	 23.20	
 10.194	151.526	  1.23546	  0.33064	  0.98458	  0.83026	  0.46174	 -0.02531	  1.27496	709.27698	 23.20	
 10.210	161.034	  1.23004	  0.30429	  1.00913	  0.76476	  0.51312	 -0.02338	  1.26914	709.29102	 23.20	
 10.191	170.497	  1.23031	  0.29042	  1.02518	  0.70253	  0.57033	 -0.02403	  1.26925	709.19702	 23.20	
 11.899	171.783	  1.20933	  0.21755	  1.07319	  0.68414	  0.54957	 -0.03437	  1.27196	709.27899	 23.20	
 11.890	163.610	  1.20231	  0.22933	  1.05215	  0.74240	  0.48917	 -0.03297	  1.26386	709.20001	 23.20	
 11.889	155.445	  1.21121	  0.25110	  1.03643	  0.81055	  0.43896	 -0.03191	  1.27445	709.34601	 23.20	
 11.909	147.299	  1.20596	  0.27622	  1.00059	  0.86642	  0.38751	 -0.03391	  1.26951	709.20398	 23.20	
 11.902	139.148	  1.20757	  0.31046	  0.96069	  0.92223	  0.34342	 -0.03549	  1.27102	709.26001	 23.20	
 11.894	130.867	  1.20913	  0.35187	  0.91392	  0.97228	  0.30656	 -0.03757	  1.27410	709.32501	 23.20	
 11.897	122.732	  1.21028	  0.39891	  0.86040	  1.01390	  0.27540	 -0.03729	  1.27362	709.31799	 23.20	
 11.903	114.597	  1.20822	  0.44862	  0.80115	  1.04550	  0.24996	 -0.03684	  1.27216	709.20001	 23.20	
 11.893	106.346	  1.20444	  0.50430	  0.73584	  1.06672	  0.23039	 -0.03675	  1.26818	709.20801	 23.20	
 11.892	 98.155	  1.20784	  0.56572	  0.67385	  1.08346	  0.22098	 -0.03835	  1.27191	709.21100	 23.30	
 11.900	 90.000	  1.21053	  0.62871	  0.61310	  1.09195	  0.21755	 -0.03711	  1.27427	709.24902	 23.20	
 11.892	 81.845	  1.20604	  0.68994	  0.54768	  1.08395	  0.21917	 -0.03526	  1.27049	709.15302	 23.30	
 11.893	 73.654	  1.20628	  0.75177	  0.49103	  1.06771	  0.23366	 -0.03271	  1.27013	709.25098	 23.20	
 11.903	 65.403	  1.21001	  0.81792	  0.43564	  1.04822	  0.25254	 -0.03052	  1.27433	709.21399	 23.30	
 11.897	 57.268	  1.20644	  0.87295	  0.38258	  1.01166	  0.27544	 -0.03193	  1.27097	709.20398	 23.20	
 11.894	 49.133	  1.20884	  0.92744	  0.33958	  0.97359	  0.30941	 -0.02997	  1.27450	709.21997	 23.30	
 11.902	 40.852	  1.20738	  0.97461	  0.29758	  0.92495	  0.34524	 -0.03361	  1.27456	709.34399	 23.30	
 11.909	 32.701	  1.20660	  1.01460	  0.26487	  0.87055	  0.39050	 -0.03133	  1.27329	709.25598	 23.30	
 11.889	 24.555	  1.20690	  1.04672	  0.24093	  0.81211	  0.44275	 -0.03128	  1.27529	709.24298	 23.30	
 11.890	 16.390	  1.20471	  1.06886	  0.22145	  0.74980	  0.49653	 -0.03292	  1.27372	709.18701	 23.30	
 11.899	  8.217	  1.20045	  1.07918	  0.20943	  0.68402	  0.55362	 -0.03428	  1.27089	709.18103	 23.30	
 11.900	  0.000	  1.19959	  1.08239	  0.20581	  0.61930	  0.61560	 -0.03726	  1.27040	709.16901	 23.30	
 11.899	 -8.217	  1.19962	  1.07714	  0.21035	  0.55784	  0.67838	 -0.03566	  1.27167	709.20001	 23.30	
 11.890	-16.390	  1.19701	  1.05900	  0.21872	  0.49592	  0.73922	 -0.03675	  1.27013	709.26001	 23.30	
 11.889	-24.555	  1.19839	  1.03598	  0.23746	  0.44055	  0.80219	 -0.03878	  1.27116	709.18701	 23.30	
 11.909	-32.701	  1.19363	  0.99762	  0.26152	  0.38624	  0.85748	 -0.04282	  1.26804	708.02698	 23.30	
 11.902	-40.852	  1.19860	  0.96120	  0.29643	  0.34525	  0.91287	 -0.04412	  1.27171	709.21997	 23.30	
 11.894	-49.133	  1.19532	  0.90783	  0.33439	  0.30319	  0.95900	 -0.04575	  1.26908	709.24298	 23.30	
 11.897	-57.268	  1.19543	  0.85644	  0.37690	  0.26978	  0.99974	 -0.04841	  1.27063	709.30499	 23.30	
 11.903	-65.403	  1.20002	  0.79951	  0.43106	  0.24440	  1.03733	 -0.04766	  1.27574	709.24298	 23.30	
 11.893	-73.654	  1.19482	  0.73303	  0.48532	  0.22579	  1.05516	 -0.04720	  1.27010	709.21802	 23.30	
 11.892	-81.845	  1.19755	  0.67097	  0.54501	  0.21410	  1.07123	 -0.04806	  1.27279	709.17499	 23.30	
 11.900	-90.000	  1.19120	  0.60374	  0.60509	  0.20892	  1.07023	 -0.04822	  1.26654	709.14899	 23.30	
 11.892	-98.155	  1.19673	  0.54301	  0.67101	  0.21208	  1.06898	 -0.04677	  1.27069	709.10498	 23.30	
 11.893	-106.346	  1.20168	  0.48703	  0.73738	  0.22519	  1.05825	 -0.04329	  1.27530	709.02502	 23.30	
 11.903	-114.597	  1.19515	  0.42648	  0.79500	  0.24068	  1.02760	 -0.04081	  1.26651	709.13800	 23.30	
 11.897	-122.732	  1.20192	  0.38053	  0.85580	  0.26999	  0.99767	 -0.03832	  1.27050	709.20001	 23.30	
 11.894	-130.867	  1.20120	  0.33420	  0.90785	  0.30093	  0.95524	 -0.03697	  1.26830	709.23401	 23.30	
 11.902	-139.148	  1.20120	  0.29502	  0.95586	  0.33908	  0.90713	 -0.03662	  1.26782	709.08698	 23.30	
 11.909	-147.299	  1.20791	  0.26478	  1.00199	  0.38765	  0.85696	 -0.03426	  1.27215	708.59302	 23.30	
 11.889	-155.445	  1.20521	  0.24205	  1.02917	  0.43731	  0.79727	 -0.03495	  1.26817	709.22601	 23.30	
 11.890	-163.610	  1.20891	  0.22554	  1.05611	  0.49697	  0.73634	 -0.03304	  1.27002	709.08502	 23.30	
 11.899	-171.783	  1.20843	  0.21530	  1.07250	  0.55579	  0.67448	 -0.03267	  1.27062	709.06299	 23.30	
 11.900	180.000	  1.20875	  0.21051	  1.07681	  0.61601	  0.61189	 -0.03459	  1.27112	709.07703	 23.30	
 13.600	180.000	  1.17999	  0.13926	  1.11631	  0.59350	  0.58738	 -0.04426	  1.26996	709.06201	 23.30	
 13.608	-172.853	  1.18215	  0.14215	  1.11376	  0.53366	  0.65018	 -0.04405	  1.27274	709.17999	 23.30	
 13.611	-165.583	  1.18593	  0.15028	  1.10505	  0.47403	  0.71533	 -0.04287	  1.27750	709.22198	 23.30	
 13.601	-158.353	  1.18168	  0.16334	  1.07973	  0.41380	  0.77559	 -0.04341	  1.27252	709.21100	 23.30	
 13.609	-151.210	  1.17886	  0.18426	  1.04936	  0.36102	  0.83386	 -0.04345	  1.27044	709.16602	 23.30	
 13.611	-143.999	  1.17719	  0.21033	  1.01257	  0.31323	  0.88924	 -0.04541	  1.27106	709.18298	 23.30	
 13.601	-136.825	  1.18107	  0.24558	  0.97306	  0.27111	  0.94629	 -0.04494	  1.27665	709.18402	 23.30	
 13.596	-129.640	  1.17548	  0.28333	  0.92038	  0.23261	  0.98980	 -0.04712	  1.27361	709.16901	 23.30	
