FileType=PCF
NHL=14
Date=08/26/17	14:54:31
Facility=APL
Serial=16328-9
Customer=NASA
NP=6
Mach=0.100000
Calibration=1:1
CalPts=490
TstPts=95
PortNumbering=AP Standard
Units=Torr C m/s kg/m^3 deg mm 
Theta[deg]	Phi[deg]	P1[Torr]	P2[Torr]	P3[Torr]	P4[Torr]	P5[Torr]	P6[Torr]	Pt[Torr]	Ps[Abs,Torr]	Ts[C]	
  0.000	  0.000	  4.97054	  2.69347	  2.67295	  2.71242	  2.69476	  0.03488	  4.97188	708.05798	 24.80	
  1.691	128.401	  4.96172	  2.53135	  2.78082	  2.86506	  2.49674	  0.03096	  4.96110	708.02399	 24.80	
  1.692	 77.194	  4.97628	  2.72270	  2.59481	  2.92518	  2.46500	  0.02975	  4.97545	707.99799	 24.80	
  1.699	 26.182	  4.95866	  2.87583	  2.44839	  2.78162	  2.56501	  0.02874	  4.95893	707.93103	 24.80	
  1.699	-26.182	  4.95767	  2.87445	  2.45730	  2.58937	  2.76051	  0.02437	  4.95499	708.03003	 24.80	
  1.692	-77.194	  4.96818	  2.71063	  2.60704	  2.48995	  2.89121	  0.02139	  4.96596	707.91699	 24.80	
  1.691	-128.401	  4.95656	  2.53675	  2.79445	  2.52078	  2.85472	  0.02832	  4.95439	708.08301	 24.80	
  1.700	180.000	  4.97626	  2.46730	  2.88378	  2.68794	  2.67258	  0.02995	  4.97687	707.96503	 24.80	
  3.400	180.000	  4.96089	  2.18138	  3.12804	  2.65631	  2.63454	  0.01959	  4.96520	708.17102	 24.80	
  3.388	-152.325	  4.94343	  2.21887	  3.05898	  2.43055	  2.85274	  0.01714	  4.94938	708.11102	 24.80	
  3.397	-124.529	  4.95193	  2.35990	  2.90095	  2.27483	  3.04417	  0.01172	  4.95754	708.15100	 24.80	
  3.399	-96.763	  4.95847	  2.57489	  2.67701	  2.20664	  3.13780	  0.00645	  4.96663	708.13898	 24.80	
  3.394	-69.283	  4.95633	  2.80990	  2.44838	  2.23449	  3.10669	  0.00409	  4.96244	707.95398	 24.80	
  3.400	-41.398	  4.95056	  3.01120	  2.26710	  2.34899	  2.96197	  0.00725	  4.95883	708.08899	 24.80	
  3.401	-14.021	  4.95843	  3.13610	  2.17187	  2.54115	  2.75742	  0.01055	  4.96507	708.01801	 24.80	
  3.401	 14.021	  4.95436	  3.13495	  2.16727	  2.78021	  2.51459	  0.01611	  4.96052	708.06000	 24.80	
  3.400	 41.398	  4.95775	  3.02164	  2.26149	  2.99617	  2.32322	  0.01701	  4.96387	708.05200	 24.80	
  3.394	 69.283	  4.96131	  2.82004	  2.44418	  3.13913	  2.20698	  0.01570	  4.96507	708.01898	 24.80	
  3.399	 96.763	  4.95713	  2.58280	  2.66936	  3.16562	  2.18230	  0.01489	  4.96341	708.15302	 24.80	
  3.397	124.529	  4.96541	  2.37633	  2.89935	  3.08232	  2.25616	  0.01665	  4.96821	708.09998	 24.80	
  3.388	152.325	  4.94968	  2.22596	  3.05909	  2.88602	  2.40810	  0.01652	  4.95572	708.17798	 24.80	
  5.099	161.165	  4.95152	  1.94413	  3.32845	  2.87909	  2.36634	  0.00038	  4.97721	708.03802	 24.80	
  5.109	142.013	  4.93523	  2.04605	  3.18934	  3.09966	  2.15614	 -0.00027	  4.96251	708.14697	 24.80	
  5.095	123.033	  4.94500	  2.22249	  3.00002	  3.27890	  2.01627	 -0.00272	  4.97130	708.14203	 24.80	
  5.105	104.191	  4.94383	  2.43607	  2.76761	  3.38646	  1.92877	 -0.00414	  4.97156	708.06702	 24.80	
  5.093	 85.207	  4.92847	  2.67164	  2.51305	  3.39664	  1.90618	 -0.00271	  4.95619	708.05701	 24.80	
  5.104	 66.290	  4.94201	  2.92115	  2.28730	  3.34150	  1.96241	  0.00065	  4.96662	708.11603	 24.80	
  5.094	 47.331	  4.95126	  3.14113	  2.10136	  3.20298	  2.08712	  0.00255	  4.97487	708.05701	 24.80	
  5.089	 28.397	  4.93088	  3.28616	  1.95832	  2.99079	  2.25455	 -0.00052	  4.95716	708.16199	 24.80	
  5.096	  9.576	  4.92872	  3.37106	  1.88995	  2.75471	  2.47651	 -0.00244	  4.95725	708.09198	 24.80	
  5.096	 -9.576	  4.94073	  3.37894	  1.89556	  2.51018	  2.73313	 -0.00678	  4.97305	708.04999	 24.80	
  5.089	-28.397	  4.92436	  3.27926	  1.96189	  2.28312	  2.95682	 -0.01238	  4.95643	708.12799	 24.80	
  5.094	-47.331	  4.94348	  3.13076	  2.10610	  2.11053	  3.17290	 -0.01897	  4.97241	708.14203	 24.80	
  5.104	-66.290	  4.93482	  2.90730	  2.29336	  1.98031	  3.31440	 -0.02034	  4.96485	708.09998	 24.80	
  5.093	-85.207	  4.92917	  2.66049	  2.52097	  1.92405	  3.37409	 -0.01847	  4.95843	708.04303	 24.80	
  5.105	-104.191	  4.92274	  2.41011	  2.76614	  1.93530	  3.34854	 -0.01369	  4.95359	708.11401	 24.80	
  5.095	-123.033	  4.93959	  2.20197	  3.00802	  2.03015	  3.24849	 -0.00707	  4.96446	708.04602	 24.80	
  5.109	-142.013	  4.93125	  2.03150	  3.19370	  2.17989	  3.06371	 -0.00168	  4.95335	708.15900	 24.80	
  5.099	-161.165	  4.94223	  1.93409	  3.32495	  2.39085	  2.84049	  0.00228	  4.96551	708.21503	 24.80	
  5.100	180.000	  4.93727	  1.90061	  3.36331	  2.62363	  2.59695	  0.00311	  4.96090	708.15002	 24.80	
  6.800	180.000	  4.90440	  1.61617	  3.58982	  2.57926	  2.55057	 -0.02703	  4.96600	708.12799	 24.80	
  6.796	-166.229	  4.91877	  1.64136	  3.57005	  2.35161	  2.79759	 -0.02424	  4.97847	708.11902	 24.80	
  6.808	-152.311	  4.91223	  1.70966	  3.47545	  2.13001	  3.02689	 -0.02543	  4.96829	708.17603	 24.80	
  6.795	-138.383	  4.90979	  1.83590	  3.32710	  1.94322	  3.24086	 -0.03170	  4.97297	708.24701	 24.80	
  6.792	-124.591	  4.90216	  1.99939	  3.13236	  1.79367	  3.41229	 -0.03527	  4.96880	708.15302	 24.80	
  6.787	-110.754	  4.91095	  2.20499	  2.91606	  1.69973	  3.54142	 -0.04074	  4.98121	708.30798	 24.80	
  6.800	-96.985	  4.89099	  2.42696	  2.66662	  1.64388	  3.59197	 -0.05066	  4.96340	708.34003	 24.80	
  6.800	-83.015	  4.88817	  2.67371	  2.42034	  1.64519	  3.59331	 -0.05539	  4.96399	708.22601	 24.80	
  6.787	-69.246	  4.87786	  2.90641	  2.18840	  1.69493	  3.52454	 -0.05321	  4.95109	708.13098	 24.80	
  6.792	-55.409	  4.89474	  3.14165	  1.99519	  1.79946	  3.41797	 -0.05333	  4.96907	708.14203	 24.80	
  6.795	-41.617	  4.90560	  3.34418	  1.83072	  1.95119	  3.25492	 -0.05020	  4.98159	708.24402	 24.80	
  6.808	-27.689	  4.88622	  3.48420	  1.69552	  2.13239	  3.02937	 -0.04136	  4.96224	708.25201	 24.80	
  6.796	-13.771	  4.89308	  3.58135	  1.62214	  2.35155	  2.80037	 -0.03468	  4.97093	708.34198	 24.80	
  6.800	  0.000	  4.90361	  3.62035	  1.59801	  2.59233	  2.56222	 -0.03433	  4.97636	708.24902	 24.80	
  6.796	 13.771	  4.89158	  3.58065	  1.61745	  2.82767	  2.31815	 -0.03065	  4.96290	708.25201	 24.80	
  6.808	 27.689	  4.88933	  3.48820	  1.68766	  3.05792	  2.10089	 -0.02455	  4.95842	708.28802	 24.80	
  6.795	 41.617	  4.88354	  3.33547	  1.81219	  3.26014	  1.91879	 -0.02322	  4.95237	708.21802	 24.80	
  6.792	 55.409	  4.89548	  3.15347	  1.98086	  3.43858	  1.77723	 -0.02285	  4.96150	708.25500	 24.80	
  6.787	 69.246	  4.88966	  2.92789	  2.17986	  3.55509	  1.67582	 -0.02550	  4.95740	708.18402	 24.80	
  6.800	 83.015	  4.89563	  2.69307	  2.40711	  3.62339	  1.62487	 -0.03107	  4.96440	708.25403	 24.80	
  6.800	 96.985	  4.89373	  2.44859	  2.65125	  3.62278	  1.62490	 -0.03456	  4.96510	708.16803	 24.80	
  6.787	110.754	  4.89199	  2.22133	  2.88919	  3.55779	  1.67547	 -0.03179	  4.96116	708.10797	 24.80	
  6.792	124.591	  4.89193	  2.01772	  3.11277	  3.43594	  1.77355	 -0.03273	  4.96012	708.31097	 24.80	
  6.795	138.383	  4.90042	  1.85127	  3.31233	  3.26913	  1.91969	 -0.03028	  4.96870	708.29401	 24.80	
  6.808	152.311	  4.89760	  1.72148	  3.46017	  3.05755	  2.09852	 -0.02342	  4.96081	708.32703	 24.80	
  6.796	166.229	  4.89784	  1.64451	  3.55195	  2.82127	  2.31395	 -0.02339	  4.96104	708.20898	 24.80	
  8.491	168.704	  4.84821	  1.35001	  3.77009	  2.77202	  2.24827	 -0.05984	  4.96690	708.30798	 24.80	
  8.502	157.493	  4.83691	  1.40994	  3.68697	  3.00882	  2.01966	 -0.05662	  4.95711	708.29401	 24.80	
  8.494	146.194	  4.84507	  1.51842	  3.56758	  3.24271	  1.82440	 -0.06255	  4.96990	708.34998	 24.80	
  8.495	135.039	  4.83118	  1.65681	  3.39132	  3.43854	  1.64619	 -0.06974	  4.96013	708.23199	 24.80	
  8.487	123.723	  4.83519	  1.83907	  3.18724	  3.61122	  1.51053	 -0.07172	  4.96169	708.37299	 24.80	
  8.492	112.575	  4.84207	  2.04514	  2.96491	  3.74032	  1.41246	 -0.07258	  4.97511	708.31702	 24.80	
  8.510	101.220	  4.83368	  2.27134	  2.71548	  3.81477	  1.34699	 -0.07521	  4.96559	708.24701	 24.80	
  8.500	 90.000	  4.83395	  2.51243	  2.46847	  3.83995	  1.32833	 -0.07592	  4.96570	708.34998	 24.80	
  8.510	 78.780	  4.82920	  2.75960	  2.22243	  3.81112	  1.34520	 -0.06620	  4.96148	708.29401	 24.80	
  8.492	 67.425	  4.83254	  3.00470	  1.99503	  3.73438	  1.40998	 -0.05762	  4.96162	708.47400	 24.80	
  8.487	 56.277	  4.84205	  3.23322	  1.80026	  3.61830	  1.51338	 -0.05671	  4.97359	708.30499	 24.80	
  8.495	 44.961	  4.83024	  3.43027	  1.61899	  3.44419	  1.64902	 -0.05953	  4.96199	708.39600	 24.80	
  8.494	 33.806	  4.82999	  3.59411	  1.48177	  3.24185	  1.82330	 -0.05789	  4.96172	708.29498	 24.80	
  8.502	 22.507	  4.83411	  3.72379	  1.37965	  3.01910	  2.02882	 -0.05792	  4.96925	708.40399	 24.80	
  8.491	 11.296	  4.82501	  3.79116	  1.32023	  2.77357	  2.25023	 -0.06606	  4.95912	708.22400	 24.80	
  8.500	  0.000	  4.81833	  3.81382	  1.29734	  2.52132	  2.49313	 -0.07090	  4.95715	708.38202	 24.80	
  8.491	-11.296	  4.83199	  3.79577	  1.32617	  2.28620	  2.74746	 -0.07016	  4.97042	708.26001	 24.80	
  8.502	-22.507	  4.82513	  3.71294	  1.38532	  2.05774	  2.98575	 -0.07159	  4.96644	708.45398	 24.80	
  8.494	-33.806	  4.82101	  3.58050	  1.49107	  1.84848	  3.21385	 -0.08148	  4.95973	708.42102	 24.80	
  8.495	-44.961	  4.83631	  3.42381	  1.63490	  1.67701	  3.42704	 -0.09195	  4.97556	708.38898	 24.80	
  8.487	-56.277	  4.83691	  3.21725	  1.81323	  1.53939	  3.59149	 -0.09215	  4.97370	708.44598	 24.80	
  8.492	-67.425	  4.82736	  2.98331	  2.01238	  1.43349	  3.70679	 -0.09483	  4.96396	708.53003	 24.80	
  8.510	-78.780	  4.81493	  2.73078	  2.23545	  1.36201	  3.77798	 -0.09658	  4.95231	708.36200	 24.80	
  8.500	-90.000	  4.83398	  2.49033	  2.48777	  1.34527	  3.81489	 -0.09458	  4.96958	708.41803	 24.80	
  8.510	-101.220	  4.83329	  2.24458	  2.73466	  1.36359	  3.78720	 -0.08617	  4.96662	708.28802	 24.80	
  8.492	-112.575	  4.83142	  2.01370	  2.97838	  1.42786	  3.70092	 -0.07420	  4.95967	708.33398	 24.80	
  8.487	-123.723	  4.83938	  1.81334	  3.20616	  1.53037	  3.57810	 -0.06868	  4.96372	708.34003	 24.80	
  8.495	-135.039	  4.84457	  1.63590	  3.41106	  1.66636	  3.41244	 -0.06756	  4.96117	708.35797	 24.80	
  8.494	-146.194	  4.83950	  1.49746	  3.56745	  1.83871	  3.20281	 -0.06346	  4.95299	708.48798	 24.80	
  8.502	-157.493	  4.84350	  1.39649	  3.69445	  2.04725	  2.97389	 -0.05641	  4.95696	708.52502	 24.80	
  8.491	-168.704	  4.84373	  1.33915	  3.76918	  2.27367	  2.73362	 -0.05631	  4.95470	708.44598	 24.80	
  8.500	180.000	  4.84848	  1.32330	  3.79832	  2.51910	  2.49037	 -0.06230	  4.96540	708.43799	 24.80	
 10.200	180.000	  4.76171	  1.02335	  3.98452	  2.43984	  2.41263	 -0.09983	  4.95235	708.33600	 24.80	
 10.191	-170.497	  4.76947	  1.04061	  3.96660	  2.19826	  2.66260	 -0.09530	  4.95344	708.34198	 24.80	
 10.210	-161.034	  4.77833	  1.09032	  3.90978	  1.96970	  2.91391	 -0.09166	  4.95953	708.32001	 24.90	
 10.194	-151.526	  4.78614	  1.17818	  3.80878	  1.75346	  3.16172	 -0.09496	  4.97317	708.30499	 24.80	
 10.190	-142.105	  4.76554	  1.28928	  3.64999	  1.55565	  3.36796	 -0.09825	  4.95566	708.23999	 24.80	
 10.215	-132.646	  4.76048	  1.43540	  3.47458	  1.39205	  3.56463	 -0.10150	  4.95808	708.29999	 24.90	
 10.203	-123.092	  4.76893	  1.61975	  3.27352	  1.25997	  3.74110	 -0.10564	  4.97079	708.38202	 24.90	
 10.192	-113.678	  4.75583	  1.82213	  3.03773	  1.15614	  3.86242	 -0.10865	  4.96352	708.44299	 24.90	
 10.208	-104.249	  4.75136	  2.04364	  2.79339	  1.08133	  3.95556	 -0.12310	  4.96520	708.52502	 24.90	
 10.210	-94.801	  4.73488	  2.27893	  2.53610	  1.04430	  3.99117	 -0.13590	  4.95304	708.48798	 24.90	
 10.210	-85.199	  4.75063	  2.54275	  2.29004	  1.04970	  4.00586	 -0.14027	  4.97022	708.31897	 24.90	
 10.208	-75.751	  4.73704	  2.78683	  2.04300	  1.08390	  3.95307	 -0.14158	  4.95732	708.39801	 24.90	
 10.192	-66.322	  4.74833	  3.03638	  1.82454	  1.16081	  3.87186	 -0.13720	  4.96747	708.34698	 24.90	
 10.203	-56.908	  4.74875	  3.27155	  1.61899	  1.26489	  3.74571	 -0.13629	  4.96618	708.45099	 24.90	
 10.215	-47.354	  4.73689	  3.47534	  1.43330	  1.39975	  3.57190	 -0.13108	  4.95506	708.44598	 24.90	
 10.190	-37.895	  4.74450	  3.66244	  1.28685	  1.56619	  3.38348	 -0.12408	  4.96565	708.48499	 24.90	
 10.194	-28.474	  4.74417	  3.80991	  1.16672	  1.75836	  3.16260	 -0.11422	  4.96350	708.42603	 24.90	
 10.210	-18.966	  4.73615	  3.91569	  1.07537	  1.97333	  2.91803	 -0.10819	  4.95800	708.42102	 24.90	
 10.191	 -9.503	  4.73860	  3.98287	  1.02578	  2.20712	  2.67313	 -0.10555	  4.95735	708.42603	 24.90	
 10.200	  0.000	  4.74457	  4.01370	  1.00461	  2.45280	  2.42589	 -0.10714	  4.96489	708.50500	 24.90	
 10.191	  9.503	  4.73627	  3.98245	  1.02220	  2.70125	  2.17428	 -0.10560	  4.95475	708.46600	 24.90	
 10.210	 18.966	  4.74384	  3.92709	  1.06967	  2.95165	  1.94473	 -0.10038	  4.96308	708.33099	 24.90	
 10.194	 28.474	  4.75477	  3.82649	  1.16111	  3.19375	  1.73685	 -0.09356	  4.97213	708.44397	 24.90	
 10.190	 37.895	  4.75333	  3.68129	  1.27701	  3.41276	  1.54392	 -0.09317	  4.96924	708.39801	 24.90	
 10.215	 47.354	  4.75231	  3.50256	  1.42225	  3.60703	  1.37542	 -0.09142	  4.96711	708.38898	 24.90	
 10.203	 56.908	  4.74653	  3.28764	  1.60003	  3.76276	  1.24385	 -0.08936	  4.95888	708.45099	 24.90	
 10.192	 66.322	  4.75607	  3.06518	  1.80822	  3.89389	  1.14794	 -0.09214	  4.96754	708.55103	 24.90	
 10.208	 75.751	  4.75407	  2.82204	  2.02747	  3.98231	  1.07521	 -0.10380	  4.96674	708.52802	 24.90	
 10.210	 85.199	  4.75417	  2.57329	  2.26817	  4.02769	  1.03811	 -0.11407	  4.96822	708.59198	 24.90	
 10.210	 94.801	  4.76032	  2.32183	  2.52481	  4.03192	  1.03964	 -0.12026	  4.97167	708.59998	 24.90	
 10.208	104.249	  4.75559	  2.08231	  2.77190	  3.98391	  1.07510	 -0.12075	  4.96751	708.50500	 24.90	
 10.192	113.678	  4.75628	  1.85759	  3.01554	  3.89333	  1.14525	 -0.11749	  4.96740	708.71899	 24.90	
 10.203	123.092	  4.75364	  1.64875	  3.24482	  3.76634	  1.24248	 -0.11604	  4.96208	708.48798	 24.90	
 10.215	132.646	  4.75893	  1.46533	  3.45987	  3.60547	  1.37231	 -0.11248	  4.96836	708.66498	 24.90	
 10.190	142.105	  4.76235	  1.31749	  3.64092	  3.40719	  1.53956	 -0.10391	  4.96697	708.66498	 24.90	
 10.194	151.526	  4.76728	  1.19711	  3.79186	  3.18723	  1.73145	 -0.09367	  4.96743	708.69299	 24.90	
 10.210	161.034	  4.77273	  1.10419	  3.90608	  2.95079	  1.94345	 -0.09279	  4.96917	708.64001	 24.90	
 10.191	170.497	  4.77383	  1.05148	  3.97077	  2.70198	  2.17318	 -0.09718	  4.96465	708.65698	 24.90	
 11.899	171.783	  4.67943	  0.75127	  4.15356	  2.61867	  2.08651	 -0.13686	  4.96379	708.62402	 24.90	
 11.890	163.610	  4.66687	  0.79862	  4.08346	  2.86208	  1.85122	 -0.13220	  4.95698	708.63397	 25.00	
 11.889	155.445	  4.66671	  0.87492	  3.99223	  3.10895	  1.63355	 -0.13164	  4.96154	708.59003	 24.90	
 11.909	147.299	  4.66805	  0.97599	  3.86759	  3.34626	  1.42979	 -0.13990	  4.96935	708.67200	 25.00	
 11.902	139.148	  4.66018	  1.10819	  3.69726	  3.55515	  1.25003	 -0.14934	  4.96305	708.47998	 24.90	
 11.894	130.867	  4.64145	  1.26456	  3.49158	  3.73043	  1.09644	 -0.15609	  4.94452	708.54401	 24.90	
 11.897	122.732	  4.65672	  1.45238	  3.29038	  3.90637	  0.97159	 -0.16261	  4.96282	708.49597	 24.90	
 11.903	114.597	  4.65451	  1.65447	  3.05773	  4.03775	  0.86939	 -0.16426	  4.96605	708.62598	 24.90	
 11.893	106.346	  4.65762	  1.88138	  2.81192	  4.13526	  0.79747	 -0.16843	  4.97007	708.56702	 24.90	
 11.892	 98.155	  4.64121	  2.11170	  2.55107	  4.17877	  0.75229	 -0.17068	  4.95267	708.68500	 24.90	
 11.900	 90.000	  4.66324	  2.36829	  2.31203	  4.21760	  0.74212	 -0.16464	  4.97804	708.51099	 24.90	
 11.892	 81.845	  4.65349	  2.61525	  2.06154	  4.18973	  0.75656	 -0.15353	  4.96584	708.62903	 24.90	
 11.893	 73.654	  4.63942	  2.85495	  1.82154	  4.12012	  0.79862	 -0.14050	  4.95249	708.62402	 24.90	
 11.903	 65.403	  4.65054	  3.10772	  1.60358	  4.03449	  0.87471	 -0.12977	  4.96331	708.63202	 24.90	
 11.897	 57.268	  4.65530	  3.34217	  1.40572	  3.90951	  0.97972	 -0.12655	  4.96904	708.60999	 25.00	
 11.894	 49.133	  4.65596	  3.55373	  1.22782	  3.74956	  1.10779	 -0.12677	  4.96885	708.58698	 24.90	
 11.902	 40.852	  4.64745	  3.73956	  1.06793	  3.55790	  1.25939	 -0.12742	  4.96395	708.60303	 24.90	
 11.909	 32.701	  4.64255	  3.89675	  0.93994	  3.34472	  1.43701	 -0.12809	  4.96203	708.57599	 24.90	
 11.889	 24.555	  4.64449	  4.02375	  0.84276	  3.11280	  1.64210	 -0.13274	  4.96278	708.58398	 24.90	
 11.890	 16.390	  4.65083	  4.12079	  0.77255	  2.87722	  1.86502	 -0.13761	  4.97172	708.65100	 24.90	
 11.899	  8.217	  4.64026	  4.17043	  0.72628	  2.62410	  2.09239	 -0.14229	  4.96198	708.70300	 24.90	
 11.900	  0.000	  4.64083	  4.18949	  0.71220	  2.36814	  2.34446	 -0.14113	  4.96254	708.71600	 24.90	
 11.899	 -8.217	  4.63900	  4.16670	  0.72853	  2.12370	  2.59378	 -0.13895	  4.96231	708.76703	 24.90	
 11.890	-16.390	  4.64768	  4.11410	  0.77603	  1.89242	  2.84650	 -0.13835	  4.97056	708.68201	 24.90	
 11.889	-24.555	  4.63833	  4.00872	  0.84869	  1.66499	  3.08662	 -0.14324	  4.96070	708.64801	 24.90	
 11.909	-32.701	  4.63249	  3.87499	  0.94772	  1.45989	  3.31237	 -0.15027	  4.95159	708.59802	 24.90	
 11.902	-40.852	  4.63661	  3.71342	  1.07952	  1.28257	  3.52523	 -0.15585	  4.95519	708.62598	 24.90	
 11.894	-49.133	  4.64691	  3.52742	  1.24251	  1.12715	  3.72429	 -0.16372	  4.96323	708.60101	 25.00	
 11.897	-57.268	  4.63194	  3.30138	  1.41598	  0.98895	  3.87478	 -0.16771	  4.94903	708.64001	 24.90	
 11.903	-65.403	  4.64010	  3.07534	  1.62220	  0.88556	  4.01220	 -0.16976	  4.96026	708.68799	 25.00	
 11.893	-73.654	  4.63976	  2.82739	  1.84601	  0.81379	  4.10275	 -0.17448	  4.95724	708.60999	 24.90	
 11.892	-81.845	  4.64824	  2.57895	  2.08825	  0.77023	  4.16332	 -0.17631	  4.96362	708.54498	 25.00	
 11.900	-90.000	  4.65057	  2.32683	  2.33447	  0.75338	  4.18409	 -0.17826	  4.96754	708.59998	 25.00	
 11.892	-98.155	  4.64030	  2.07428	  2.57915	  0.76501	  4.15138	 -0.17027	  4.95355	708.56799	 24.90	
 11.893	-106.346	  4.65289	  1.84328	  2.83608	  0.80837	  4.10384	 -0.15953	  4.96426	708.78699	 24.90	
 11.903	-114.597	  4.67387	  1.62256	  3.09519	  0.88258	  4.02130	 -0.14704	  4.98115	708.62299	 25.00	
 11.897	-122.732	  4.67312	  1.42122	  3.32047	  0.98545	  3.88550	 -0.13931	  4.97309	708.62402	 24.90	
 11.894	-130.867	  4.66944	  1.23999	  3.52560	  1.11448	  3.71438	 -0.13544	  4.96283	708.81799	 25.00	
 11.902	-139.148	  4.68777	  1.08553	  3.72724	  1.27683	  3.52942	 -0.13469	  4.97373	708.61798	 25.00	
 11.909	-147.299	  4.67549	  0.95443	  3.87442	  1.45048	  3.30567	 -0.13307	  4.95735	708.54401	 25.00	
 11.889	-155.445	  4.67486	  0.85806	  3.99725	  1.65264	  3.07321	 -0.13090	  4.95530	708.71899	 25.00	
 11.890	-163.610	  4.67907	  0.78824	  4.09243	  1.87896	  2.83047	 -0.13238	  4.96042	708.56403	 25.00	
 11.899	-171.783	  4.67819	  0.74501	  4.15000	  2.11285	  2.58207	 -0.13701	  4.95875	708.56097	 25.00	
 11.900	180.000	  4.68152	  0.73413	  4.17329	  2.36300	  2.33630	 -0.13878	  4.96715	708.70300	 24.90	
 13.600	180.000	  4.57071	  0.44190	  4.33487	  2.26781	  2.23924	 -0.17837	  4.96888	708.73602	 25.00	
 13.608	-172.853	  4.55464	  0.44675	  4.30599	  2.01581	  2.47521	 -0.18073	  4.94760	708.68201	 25.00	
 13.611	-165.583	  4.56621	  0.48407	  4.26585	  1.77957	  2.73437	 -0.17687	  4.96057	708.68201	 25.00	
 13.601	-158.353	  4.57260	  0.54541	  4.18834	  1.55574	  2.98734	 -0.17239	  4.96520	708.72699	 25.00	
 13.609	-151.210	  4.56762	  0.62888	  4.07235	  1.34554	  3.22010	 -0.17158	  4.96117	708.70001	 25.00	
 13.611	-143.999	  4.56031	  0.73811	  3.92632	  1.15464	  3.44201	 -0.17147	  4.95577	708.78400	 25.00	
 13.601	-136.825	  4.55425	  0.87255	  3.75249	  0.98477	  3.64812	 -0.16609	  4.95310	708.84302	 25.00	
 13.596	-129.640	  4.55415	  1.03144	  3.56142	  0.83579	  3.84088	 -0.16732	  4.96197	708.71100	 25.00	
