FileType=PCF
NHL=14
Date=03/12/19	14:49:56
Facility=APL
Serial=16071-1
Customer=NASA
NP=6
Mach=0.080000
Calibration=1:1
CalPts=490
TstPts=95
PortNumbering=AP Standard
Units=Torr C m/s kg/m^3 deg mm 
Theta[deg]	Phi[deg]	P1[Torr]	P2[Torr]	P3[Torr]	P4[Torr]	P5[Torr]	P6[Torr]	Pt[Torr]	Ps[Abs,Torr]	Ts[C]	
  0.000	  0.000	  3.17210	  1.35219	  1.42036	  1.38083	  1.35905	  0.06196	  3.16568	711.06000	 23.20	
  1.691	128.401	  3.17062	  1.25892	  1.48987	  1.48928	  1.22958	  0.05784	  3.16461	711.10999	 23.20	
  1.692	 77.194	  3.17223	  1.38031	  1.37389	  1.51004	  1.21637	  0.06429	  3.16493	711.12000	 23.20	
  1.699	 26.182	  3.17196	  1.48283	  1.28150	  1.42639	  1.30021	  0.06527	  3.16485	711.06000	 23.20	
  1.699	-26.182	  3.16916	  1.47321	  1.28866	  1.30686	  1.42020	  0.06274	  3.16380	711.06000	 23.20	
  1.692	-77.194	  3.17146	  1.37499	  1.38492	  1.23410	  1.49309	  0.05594	  3.16551	711.54999	 23.20	
  1.691	-128.401	  3.16930	  1.24832	  1.51046	  1.26095	  1.45609	  0.05446	  3.16532	711.03003	 23.20	
  1.700	180.000	  3.16947	  1.19673	  1.55604	  1.37280	  1.33571	  0.05159	  3.16435	711.85999	 23.20	
  3.400	180.000	  3.16248	  1.02231	  1.72085	  1.36040	  1.30840	  0.03698	  3.16410	711.71002	 23.20	
  3.388	-152.325	  3.16165	  1.04965	  1.68862	  1.21496	  1.45719	  0.03890	  3.16411	711.09003	 23.20	
  3.397	-124.529	  3.16007	  1.13731	  1.58420	  1.10481	  1.58010	  0.04084	  3.16170	711.00000	 23.20	
  3.399	-96.763	  3.16129	  1.26998	  1.43947	  1.05647	  1.64601	  0.04106	  3.16347	711.81000	 23.20	
  3.394	-69.283	  3.16424	  1.41700	  1.29452	  1.07084	  1.63463	  0.04496	  3.16353	711.15002	 23.20	
  3.400	-41.398	  3.16749	  1.55063	  1.17632	  1.14877	  1.54632	  0.05085	  3.16530	711.67999	 23.20	
  3.401	-14.021	  3.16842	  1.62781	  1.11258	  1.27101	  1.41383	  0.05577	  3.16481	710.96002	 23.20	
  3.401	 14.021	  3.16692	  1.63584	  1.10816	  1.41280	  1.27585	  0.06009	  3.16273	711.06000	 23.20	
  3.400	 41.398	  3.16791	  1.56565	  1.16149	  1.55317	  1.14734	  0.06179	  3.16346	711.16998	 23.20	
  3.394	 69.283	  3.16796	  1.44224	  1.26931	  1.65049	  1.05809	  0.06071	  3.16380	711.02002	 23.20	
  3.399	 96.763	  3.16790	  1.29684	  1.41356	  1.67847	  1.03175	  0.05321	  3.16490	711.10999	 23.20	
  3.397	124.529	  3.16531	  1.15988	  1.56002	  1.62569	  1.07104	  0.04575	  3.16444	711.04999	 23.20	
  3.388	152.325	  3.16300	  1.05931	  1.67341	  1.50632	  1.17108	  0.04101	  3.16334	711.10999	 23.20	
  5.099	161.165	  3.14529	  0.85916	  1.84957	  1.49914	  1.12316	  0.02042	  3.16464	711.17999	 23.20	
  5.109	142.013	  3.14709	  0.93185	  1.75775	  1.65126	  0.98911	  0.02524	  3.16546	711.10999	 23.20	
  5.095	123.033	  3.15076	  1.04808	  1.62320	  1.76666	  0.89588	  0.03097	  3.16491	711.12000	 23.20	
  5.105	104.191	  3.15271	  1.19197	  1.46631	  1.83150	  0.85043	  0.03629	  3.16497	711.08002	 23.20	
  5.093	 85.207	  3.15310	  1.35316	  1.30482	  1.83788	  0.85204	  0.04428	  3.16308	711.01001	 23.20	
  5.104	 66.290	  3.15540	  1.51007	  1.15777	  1.78915	  0.89512	  0.04917	  3.16439	711.79999	 23.20	
  5.094	 47.331	  3.15753	  1.65063	  1.03739	  1.68641	  0.98275	  0.05182	  3.16547	711.65997	 23.20	
  5.089	 28.397	  3.15581	  1.74990	  0.95921	  1.54499	  1.10597	  0.05216	  3.16262	711.83002	 23.20	
  5.096	  9.576	  3.15675	  1.80025	  0.92575	  1.38943	  1.25355	  0.04822	  3.16239	711.82001	 23.20	
  5.096	 -9.576	  3.15614	  1.79428	  0.92999	  1.23211	  1.40863	  0.04419	  3.16402	711.85999	 23.20	
  5.089	-28.397	  3.15618	  1.73324	  0.97519	  1.09274	  1.56031	  0.03668	  3.16621	711.76001	 23.20	
  5.094	-47.331	  3.15349	  1.62337	  1.06517	  0.97769	  1.69297	  0.03110	  3.16570	711.85999	 23.20	
  5.104	-66.290	  3.15217	  1.47845	  1.19355	  0.90190	  1.78353	  0.02549	  3.16673	711.79999	 23.20	
  5.093	-85.207	  3.14946	  1.31691	  1.34742	  0.87297	  1.81488	  0.02310	  3.16628	711.78998	 23.20	
  5.105	-104.191	  3.14582	  1.16036	  1.50943	  0.88710	  1.78973	  0.02195	  3.16495	711.88000	 23.20	
  5.095	-123.033	  3.14431	  1.01945	  1.66130	  0.94093	  1.71416	  0.01943	  3.16469	711.72998	 23.20	
  5.109	-142.013	  3.14327	  0.91355	  1.78638	  1.04209	  1.58929	  0.01949	  3.16477	711.75000	 23.20	
  5.099	-161.165	  3.14240	  0.84959	  1.86420	  1.18320	  1.43284	  0.01889	  3.16583	711.79999	 23.20	
  5.100	180.000	  3.14505	  0.83373	  1.88527	  1.34212	  1.27405	  0.01862	  3.16637	711.73999	 23.20	
  6.800	180.000	  3.11329	  0.64358	  2.04198	  1.31869	  1.23162	 -0.00549	  3.16529	711.76001	 23.20	
  6.796	-166.229	  3.11389	  0.65530	  2.03046	  1.16257	  1.39054	 -0.00708	  3.16625	711.69000	 23.20	
  6.808	-152.311	  3.11250	  0.69877	  1.97275	  1.01079	  1.55315	 -0.00659	  3.16517	711.78998	 23.20	
  6.795	-138.383	  3.11072	  0.77340	  1.87682	  0.88250	  1.69747	 -0.00358	  3.16255	711.73999	 23.20	
  6.792	-124.591	  3.11539	  0.87916	  1.75600	  0.78928	  1.81924	 -0.00574	  3.16597	711.75000	 23.30	
  6.787	-110.754	  3.11727	  1.01109	  1.60649	  0.72336	  1.91004	 -0.00504	  3.16606	711.75000	 23.20	
  6.800	-96.985	  3.12063	  1.15890	  1.44945	  0.68767	  1.96413	 -0.00194	  3.16680	710.97998	 23.20	
  6.800	-83.015	  3.12093	  1.31636	  1.28463	  0.68106	  1.97304	 -0.00066	  3.16457	711.70001	 23.20	
  6.787	-69.246	  3.12733	  1.47846	  1.13526	  0.71212	  1.94080	  0.00156	  3.16812	711.65997	 23.20	
  6.792	-55.409	  3.12719	  1.62933	  1.00046	  0.77156	  1.86616	  0.00550	  3.16581	710.91998	 23.20	
  6.795	-41.617	  3.13176	  1.76432	  0.89132	  0.86382	  1.75961	  0.01034	  3.16857	711.65997	 23.20	
  6.808	-27.689	  3.13234	  1.86872	  0.80895	  0.98173	  1.62219	  0.01496	  3.16574	711.69000	 23.30	
  6.796	-13.771	  3.13418	  1.93587	  0.76010	  1.12289	  1.46840	  0.02315	  3.16518	711.63000	 23.20	
  6.800	  0.000	  3.13611	  1.96456	  0.73955	  1.27347	  1.31150	  0.02804	  3.16564	711.72998	 23.20	
  6.796	 13.771	  3.13618	  1.95051	  0.74468	  1.42946	  1.15660	  0.03104	  3.16609	711.70001	 23.30	
  6.808	 27.689	  3.13525	  1.89343	  0.78249	  1.58898	  1.00785	  0.03519	  3.16283	711.67999	 23.30	
  6.795	 41.617	  3.13364	  1.79937	  0.85234	  1.73602	  0.88031	  0.03630	  3.16436	711.71997	 23.30	
  6.792	 55.409	  3.13351	  1.67415	  0.95444	  1.85393	  0.78167	  0.03299	  3.16371	711.79999	 23.30	
  6.787	 69.246	  3.13042	  1.52466	  1.08396	  1.94051	  0.71096	  0.03072	  3.16294	711.76001	 23.30	
  6.800	 83.015	  3.13024	  1.36724	  1.22943	  1.99191	  0.66676	  0.02555	  3.16600	711.78003	 23.30	
  6.800	 96.985	  3.12351	  1.20588	  1.38586	  1.99645	  0.65635	  0.02130	  3.16091	711.70001	 23.30	
  6.787	110.754	  3.12423	  1.05335	  1.54881	  1.96129	  0.68022	  0.01313	  3.16437	711.64001	 23.30	
  6.792	124.591	  3.12065	  0.91436	  1.70253	  1.88551	  0.73424	  0.00903	  3.16512	711.69000	 23.30	
  6.795	138.383	  3.11894	  0.80206	  1.83631	  1.77508	  0.82153	  0.00490	  3.16611	711.67999	 23.30	
  6.808	152.311	  3.11447	  0.71650	  1.94237	  1.63446	  0.93755	 -0.00166	  3.16392	711.70001	 23.30	
  6.796	166.229	  3.11282	  0.66352	  2.01201	  1.47713	  1.07887	 -0.00263	  3.16436	711.82001	 23.30	
  8.491	168.704	  3.07106	  0.47021	  2.16519	  1.45053	  1.02619	 -0.02954	  3.16484	711.79999	 23.30	
  8.502	157.493	  3.07116	  0.51226	  2.10481	  1.61317	  0.87834	 -0.03032	  3.16393	711.79999	 23.30	
  8.494	146.194	  3.07318	  0.58548	  2.00806	  1.76718	  0.74802	 -0.02572	  3.16328	711.75000	 23.30	
  8.495	135.039	  3.07610	  0.68321	  1.88864	  1.89850	  0.64711	 -0.01890	  3.16217	711.56000	 23.30	
  8.487	123.723	  3.08159	  0.80098	  1.74782	  2.01165	  0.56237	 -0.01701	  3.16549	711.67999	 23.30	
  8.492	112.575	  3.08205	  0.93680	  1.59174	  2.08980	  0.50492	 -0.01279	  3.16325	711.63000	 23.30	
  8.510	101.220	  3.08697	  1.09266	  1.42654	  2.14283	  0.47126	 -0.01005	  3.16566	711.67999	 23.30	
  8.500	 90.000	  3.08956	  1.25192	  1.26166	  2.15475	  0.46474	 -0.00196	  3.16485	711.71002	 23.30	
  8.510	 78.780	  3.09248	  1.41888	  1.10469	  2.13026	  0.48833	  0.00384	  3.16590	711.64001	 23.30	
  8.492	 67.425	  3.09601	  1.58491	  0.95623	  2.06723	  0.53944	  0.00650	  3.16575	711.67999	 23.30	
  8.487	 56.277	  3.09673	  1.73557	  0.82810	  1.97475	  0.61140	  0.00995	  3.16422	711.71002	 23.30	
  8.495	 44.961	  3.09820	  1.86840	  0.72232	  1.85244	  0.71124	  0.01395	  3.16372	711.65002	 23.30	
  8.494	 33.806	  3.10068	  1.97947	  0.63808	  1.71470	  0.82686	  0.01516	  3.16494	711.67999	 23.30	
  8.502	 22.507	  3.10071	  2.05955	  0.57902	  1.55559	  0.96660	  0.01208	  3.16391	711.70001	 23.30	
  8.491	 11.296	  3.09882	  2.10504	  0.54778	  1.38760	  1.11806	  0.00866	  3.16148	711.71997	 23.30	
  8.500	  0.000	  3.09759	  2.11681	  0.54349	  1.22484	  1.27998	  0.00711	  3.16316	711.71997	 23.30	
  8.491	-11.296	  3.09894	  2.09181	  0.56660	  1.07023	  1.44561	 -0.00050	  3.16547	711.60999	 23.30	
  8.502	-22.507	  3.09534	  2.03309	  0.60700	  0.92107	  1.60610	 -0.00985	  3.16300	711.63000	 23.30	
  8.494	-33.806	  3.09675	  1.94074	  0.67917	  0.79472	  1.75674	 -0.01400	  3.16760	711.56000	 23.30	
  8.495	-44.961	  3.09336	  1.82039	  0.77098	  0.68420	  1.88771	 -0.01820	  3.16635	711.67999	 23.30	
  8.487	-56.277	  3.08653	  1.67713	  0.88399	  0.59428	  1.99408	 -0.02114	  3.16197	711.60999	 23.30	
  8.492	-67.425	  3.08762	  1.52148	  1.02077	  0.53122	  2.07660	 -0.02784	  3.16614	711.66998	 23.30	
  8.510	-78.780	  3.07983	  1.35342	  1.17351	  0.49260	  2.12053	 -0.02969	  3.16432	711.65997	 23.30	
  8.500	-90.000	  3.08111	  1.19177	  1.33507	  0.48724	  2.12863	 -0.02944	  3.16693	711.65997	 23.30	
  8.510	-101.220	  3.07615	  1.03362	  1.50033	  0.50462	  2.09953	 -0.03104	  3.16461	711.53003	 23.30	
  8.492	-112.575	  3.07485	  0.88609	  1.66508	  0.54989	  2.03479	 -0.03381	  3.16611	711.53003	 23.30	
  8.487	-123.723	  3.07252	  0.75617	  1.81466	  0.61812	  1.93966	 -0.03293	  3.16525	711.59998	 23.30	
  8.495	-135.039	  3.06966	  0.64320	  1.94922	  0.71171	  1.81532	 -0.02941	  3.16485	711.21997	 23.30	
  8.494	-146.194	  3.06897	  0.55706	  2.05718	  0.82794	  1.67308	 -0.03157	  3.16604	711.65002	 23.30	
  8.502	-157.493	  3.06701	  0.49689	  2.13430	  0.96662	  1.51577	 -0.03442	  3.16376	711.65002	 23.30	
  8.491	-168.704	  3.06924	  0.46354	  2.18030	  1.12259	  1.34938	 -0.03298	  3.16529	711.59003	 23.30	
  8.500	180.000	  3.06942	  0.45350	  2.19156	  1.28550	  1.18524	 -0.03257	  3.16569	711.59998	 23.30	
 10.200	180.000	  3.01487	  0.26756	  2.33140	  1.24803	  1.12925	 -0.05937	  3.16518	711.54999	 23.30	
 10.191	-170.497	  3.01477	  0.27673	  2.32220	  1.08294	  1.29839	 -0.06158	  3.16567	711.53003	 23.30	
 10.210	-161.034	  3.01472	  0.29994	  2.28850	  0.92196	  1.46753	 -0.06187	  3.16634	711.60999	 23.30	
 10.194	-151.526	  3.01312	  0.35068	  2.21834	  0.77683	  1.62984	 -0.05751	  3.16396	711.56000	 23.30	
 10.190	-142.105	  3.01672	  0.42172	  2.12607	  0.64860	  1.78399	 -0.05706	  3.16571	711.67999	 23.30	
 10.215	-132.646	  3.01596	  0.51559	  2.00485	  0.53597	  1.92823	 -0.05736	  3.16530	711.58002	 23.30	
 10.203	-123.092	  3.01711	  0.62803	  1.86419	  0.44473	  2.04979	 -0.06005	  3.16357	711.53003	 23.30	
 10.192	-113.678	  3.02019	  0.75646	  1.71299	  0.37793	  2.14543	 -0.06015	  3.16478	711.63000	 23.30	
 10.208	-104.249	  3.02326	  0.89924	  1.55243	  0.33121	  2.21666	 -0.05833	  3.16547	711.65002	 23.40	
 10.210	-94.801	  3.02690	  1.05527	  1.38390	  0.30586	  2.25964	 -0.05606	  3.16673	710.94000	 23.40	
 10.210	-85.199	  3.03035	  1.22038	  1.21621	  0.30018	  2.27126	 -0.05544	  3.16581	711.57001	 23.30	
 10.208	-75.751	  3.03084	  1.38848	  1.05396	  0.31536	  2.25075	 -0.05787	  3.16454	711.53003	 23.30	
 10.192	-66.322	  3.03419	  1.55558	  0.90395	  0.35483	  2.19901	 -0.05532	  3.16407	711.13000	 23.40	
 10.203	-56.908	  3.03789	  1.71363	  0.76682	  0.41146	  2.12155	 -0.05213	  3.16478	711.50000	 23.30	
 10.215	-47.354	  3.04323	  1.86574	  0.64778	  0.49537	  2.01601	 -0.04767	  3.16794	711.53998	 23.40	
 10.190	-37.895	  3.04512	  1.99403	  0.54859	  0.60255	  1.88218	 -0.04569	  3.16353	710.95001	 23.40	
 10.194	-28.474	  3.04767	  2.10367	  0.47034	  0.72468	  1.73700	 -0.04155	  3.16453	711.60999	 23.40	
 10.210	-18.966	  3.04988	  2.18843	  0.40847	  0.85989	  1.58010	 -0.03531	  3.16622	710.82001	 23.30	
 10.191	 -9.503	  3.05375	  2.24083	  0.37317	  1.01211	  1.41311	 -0.02718	  3.16623	711.42999	 23.40	
 10.200	  0.000	  3.05226	  2.26179	  0.35262	  1.17285	  1.24347	 -0.02050	  3.16364	711.48999	 23.40	
 10.191	  9.503	  3.05581	  2.25328	  0.35858	  1.33923	  1.08060	 -0.01745	  3.16501	711.58002	 23.40	
 10.210	 18.966	  3.05645	  2.21572	  0.38223	  1.50947	  0.92178	 -0.01288	  3.16561	710.94000	 23.40	
 10.194	 28.474	  3.05561	  2.14625	  0.43083	  1.67550	  0.77797	 -0.00939	  3.16626	711.59998	 23.40	
 10.190	 37.895	  3.05286	  2.04903	  0.49659	  1.82682	  0.64831	 -0.00943	  3.16369	711.59003	 23.40	
 10.215	 47.354	  3.05239	  1.93005	  0.58901	  1.96817	  0.53542	 -0.01274	  3.16596	711.53998	 23.40	
 10.203	 56.908	  3.05059	  1.78742	  0.70144	  2.08984	  0.44162	 -0.01588	  3.16675	711.53003	 23.40	
 10.192	 66.322	  3.04797	  1.63442	  0.82798	  2.18233	  0.37083	 -0.02088	  3.16649	711.51001	 23.40	
 10.208	 75.751	  3.04423	  1.46855	  0.97205	  2.25162	  0.31664	 -0.02330	  3.16510	711.58002	 23.40	
 10.210	 85.199	  3.04428	  1.30095	  1.12852	  2.29022	  0.28897	 -0.02474	  3.16716	711.63000	 23.40	
 10.210	 94.801	  3.04013	  1.13063	  1.29446	  2.29616	  0.28036	 -0.03354	  3.16671	711.52002	 23.40	
 10.208	104.249	  3.03519	  0.96942	  1.46009	  2.27269	  0.29096	 -0.04026	  3.16637	711.46002	 23.40	
 10.192	113.678	  3.03177	  0.81782	  1.62578	  2.21514	  0.32628	 -0.04391	  3.16489	711.58002	 23.40	
 10.203	123.092	  3.02685	  0.68373	  1.78214	  2.13288	  0.38403	 -0.04658	  3.16414	711.08002	 23.40	
 10.215	132.646	  3.02698	  0.55950	  1.93512	  2.02357	  0.46454	 -0.04931	  3.16613	711.46997	 23.40	
 10.190	142.105	  3.02133	  0.45855	  2.06331	  1.88732	  0.56724	 -0.05220	  3.16352	711.40997	 23.40	
 10.194	151.526	  3.01895	  0.37779	  2.17046	  1.74125	  0.68477	 -0.05543	  3.16434	711.50000	 23.40	
 10.210	161.034	  3.01812	  0.31947	  2.25625	  1.58095	  0.82208	 -0.05863	  3.16576	711.46997	 23.40	
 10.191	170.497	  3.01586	  0.28221	  2.30821	  1.41240	  0.97227	 -0.06010	  3.16472	711.45001	 23.40	
 11.899	171.783	  2.94890	  0.09692	  2.44007	  1.36694	  0.91000	 -0.08621	  3.16545	711.46997	 23.40	
 11.890	163.610	  2.95246	  0.12856	  2.39287	  1.53806	  0.75657	 -0.08836	  3.16768	711.53003	 23.40	
 11.889	155.445	  2.95636	  0.18162	  2.31771	  1.70210	  0.61919	 -0.08785	  3.16688	711.51001	 23.40	
 11.909	147.299	  2.95642	  0.24832	  2.22181	  1.85943	  0.49285	 -0.08640	  3.16681	710.95001	 23.40	
 11.902	139.148	  2.95946	  0.33343	  2.10339	  2.00300	  0.38203	 -0.08344	  3.16578	711.47998	 23.40	
 11.894	130.867	  2.96031	  0.43786	  1.96359	  2.13370	  0.28481	 -0.07931	  3.16459	711.41998	 23.40	
 11.897	122.732	  2.96508	  0.56037	  1.81360	  2.24187	  0.21250	 -0.07577	  3.16557	711.52002	 23.40	
 11.903	114.597	  2.97108	  0.69546	  1.65578	  2.32648	  0.15921	 -0.07513	  3.16841	711.54999	 23.40	
 11.893	106.346	  2.97198	  0.84429	  1.48659	  2.38510	  0.12083	 -0.07163	  3.16482	711.42999	 23.40	
 11.892	 98.155	  2.97614	  1.00493	  1.31438	  2.42096	  0.09979	 -0.06841	  3.16411	711.47998	 23.40	
 11.900	 90.000	  2.97904	  1.17033	  1.14867	  2.42931	  0.09752	 -0.06092	  3.16527	711.47998	 23.40	
 11.892	 81.845	  2.98106	  1.33774	  0.98781	  2.40698	  0.11454	 -0.05590	  3.16498	711.48999	 23.40	
 11.893	 73.654	  2.98570	  1.50880	  0.83500	  2.36059	  0.14997	 -0.05228	  3.16546	711.46002	 23.40	
 11.903	 65.403	  2.98694	  1.67661	  0.69224	  2.28709	  0.20373	 -0.04935	  3.16489	711.52002	 23.40	
 11.897	 57.268	  2.99040	  1.83127	  0.56692	  2.19283	  0.27297	 -0.04612	  3.16532	711.46002	 23.40	
 11.894	 49.133	  2.99314	  1.97580	  0.45568	  2.07461	  0.36040	 -0.04311	  3.16586	711.48999	 23.40	
 11.902	 40.852	  2.99538	  2.10799	  0.35973	  1.93511	  0.46914	 -0.03843	  3.16658	711.52002	 23.40	
 11.909	 32.701	  2.99714	  2.21533	  0.28538	  1.78222	  0.59294	 -0.03704	  3.16637	711.52002	 23.40	
 11.889	 24.555	  3.00037	  2.29745	  0.23094	  1.62312	  0.72788	 -0.04104	  3.16649	711.44000	 23.40	
 11.890	 16.390	  2.99955	  2.35632	  0.19079	  1.45480	  0.87506	 -0.04214	  3.16655	711.53003	 23.40	
 11.899	  8.217	  2.99885	  2.39159	  0.17035	  1.28170	  1.03576	 -0.04640	  3.16617	711.56000	 23.40	
 11.900	  0.000	  2.99919	  2.39997	  0.16744	  1.11513	  1.20088	 -0.05070	  3.16801	711.52002	 23.40	
 11.899	 -8.217	  2.99552	  2.37779	  0.18174	  0.95193	  1.37051	 -0.05284	  3.16650	711.47998	 23.40	
 11.890	-16.390	  2.99419	  2.32802	  0.21851	  0.79841	  1.54168	 -0.06365	  3.16728	711.08002	 23.40	
 11.889	-24.555	  2.99088	  2.25521	  0.26683	  0.65846	  1.70246	 -0.06715	  3.16589	711.50000	 23.40	
 11.909	-32.701	  2.98685	  2.15807	  0.33114	  0.52747	  1.85635	 -0.07283	  3.16467	711.47998	 23.40	
 11.902	-40.852	  2.98549	  2.04079	  0.41791	  0.41365	  2.00201	 -0.07379	  3.16688	711.40997	 23.40	
 11.894	-49.133	  2.98340	  1.89923	  0.52685	  0.31682	  2.12949	 -0.07589	  3.16721	711.57001	 23.40	
 11.897	-57.268	  2.97874	  1.74627	  0.64687	  0.24067	  2.23141	 -0.07633	  3.16503	711.51001	 23.40	
 11.903	-65.403	  2.97549	  1.58683	  0.78036	  0.18233	  2.31279	 -0.07838	  3.16570	711.42999	 23.40	
 11.893	-73.654	  2.97212	  1.41743	  0.93018	  0.14228	  2.36900	 -0.07844	  3.16599	711.51001	 23.40	
 11.892	-81.845	  2.97283	  1.24717	  1.09232	  0.12066	  2.40280	 -0.07712	  3.16989	711.46002	 23.40	
 11.900	-90.000	  2.96849	  1.08164	  1.25479	  0.11393	  2.40559	 -0.07569	  3.16887	711.53003	 23.40	
 11.892	-98.155	  2.96412	  0.92144	  1.42293	  0.12880	  2.37983	 -0.07751	  3.16750	711.48999	 23.40	
 11.893	-106.346	  2.96151	  0.76822	  1.59192	  0.16149	  2.32780	 -0.08061	  3.16719	711.45001	 23.40	
 11.903	-114.597	  2.95649	  0.62624	  1.75483	  0.20935	  2.24957	 -0.08151	  3.16601	711.56000	 23.40	
 11.897	-122.732	  2.95543	  0.49971	  1.90893	  0.27680	  2.15080	 -0.08078	  3.16673	711.53003	 23.40	
 11.894	-130.867	  2.95140	  0.38555	  2.04955	  0.36109	  2.03020	 -0.07982	  3.16473	711.53998	 23.40	
 11.902	-139.148	  2.94874	  0.28830	  2.17781	  0.46610	  1.88950	 -0.08075	  3.16531	711.50000	 23.40	
 11.909	-147.299	  2.94932	  0.20894	  2.28469	  0.58641	  1.73656	 -0.08285	  3.16596	710.75000	 23.40	
 11.889	-155.445	  2.94988	  0.15263	  2.36805	  0.72327	  1.57552	 -0.08541	  3.16701	711.50000	 23.40	
 11.890	-163.610	  2.95030	  0.11183	  2.42513	  0.87216	  1.40856	 -0.08877	  3.16780	711.53003	 23.40	
 11.899	-171.783	  2.94824	  0.08918	  2.45678	  1.03159	  1.23991	 -0.08883	  3.16729	711.50000	 23.40	
 11.900	180.000	  2.94910	  0.08489	  2.46142	  1.19919	  1.07095	 -0.08808	  3.16560	711.48999	 23.40	
 13.600	180.000	  2.87203	 -0.09776	  2.58413	  1.14480	  1.00100	 -0.11278	  3.16710	711.25000	 23.40	
 13.608	-172.853	  2.86864	 -0.09531	  2.57974	  0.97891	  1.16397	 -0.11051	  3.16476	711.46002	 23.40	
 13.611	-165.583	  2.86750	 -0.07623	  2.55170	  0.81399	  1.33718	 -0.10867	  3.16524	711.58002	 23.40	
 13.601	-158.353	  2.87040	 -0.04153	  2.50271	  0.66548	  1.50653	 -0.10569	  3.16697	711.44000	 23.40	
 13.609	-151.210	  2.87023	  0.01019	  2.42639	  0.52682	  1.67201	 -0.10281	  3.16466	711.51001	 23.40	
 13.611	-143.999	  2.87151	  0.07522	  2.33275	  0.39874	  1.83338	 -0.09777	  3.16640	711.51001	 23.40	
 13.601	-136.825	  2.87286	  0.15681	  2.21879	  0.28735	  1.98193	 -0.09596	  3.16572	711.48999	 23.40	
 13.596	-129.640	  2.87633	  0.25551	  2.08824	  0.19333	  2.11766	 -0.09398	  3.16590	711.53003	 23.40	
