FileType=PCF
NHL=14
Date=03/12/19	15:27:44
Facility=APL
Serial=16071-1
Customer=NASA
NP=6
Mach=0.150000
Calibration=1:1
CalPts=490
TstPts=95
PortNumbering=AP Standard
Units=Torr C m/s kg/m^3 deg mm 
Theta[deg]	Phi[deg]	P1[Torr]	P2[Torr]	P3[Torr]	P4[Torr]	P5[Torr]	P6[Torr]	Pt[Torr]	Ps[Abs,Torr]	Ts[C]	
  0.000	  0.000	 10.95468	  4.46322	  4.81933	  4.65679	  4.50318	  0.22098	 10.95801	710.67999	 23.90	
  1.691	128.401	 10.95683	  4.11616	  5.14484	  5.11586	  4.04117	  0.20520	 10.96817	710.73999	 23.90	
  1.692	 77.194	 10.95858	  4.59264	  4.65942	  5.19575	  3.96248	  0.22396	 10.96460	710.69000	 23.90	
  1.699	 26.182	 10.95818	  4.99680	  4.28696	  4.85387	  4.28249	  0.23194	 10.96505	710.77002	 23.90	
  1.699	-26.182	 10.95419	  4.97484	  4.30718	  4.36662	  4.77551	  0.22361	 10.96481	710.70001	 23.90	
  1.692	-77.194	 10.95133	  4.57061	  4.70480	  4.10187	  5.06762	  0.20823	 10.96099	710.72998	 23.90	
  1.691	-128.401	 10.95492	  4.10001	  5.18733	  4.24117	  4.92302	  0.19364	 10.96602	710.70001	 23.90	
  1.700	180.000	 10.95765	  3.89747	  5.38508	  4.68670	  4.45864	  0.19164	 10.97003	710.71997	 23.90	
  3.400	180.000	 10.92434	  3.31685	  5.93063	  4.65195	  4.37804	  0.13552	 10.96169	710.73999	 23.90	
  3.388	-152.325	 10.92534	  3.43205	  5.81411	  4.13886	  4.91510	  0.14244	 10.96456	710.71997	 23.90	
  3.397	-124.529	 10.93206	  3.75910	  5.47364	  3.74691	  5.34814	  0.15558	 10.96634	710.66998	 23.90	
  3.399	-96.763	 10.93936	  4.26248	  4.94746	  3.53618	  5.61126	  0.16533	 10.96806	710.62000	 23.90	
  3.394	-69.283	 10.93772	  4.78464	  4.42375	  3.57495	  5.58586	  0.18265	 10.96330	710.71002	 23.90	
  3.400	-41.398	 10.94654	  5.25542	  3.96575	  3.84015	  5.27548	  0.19720	 10.96626	710.72998	 23.90	
  3.401	-14.021	 10.95171	  5.57415	  3.68813	  4.29209	  4.76147	  0.21654	 10.97057	710.71997	 23.90	
  3.401	 14.021	 10.95091	  5.59759	  3.65848	  4.82044	  4.24383	  0.22315	 10.96667	710.69000	 23.90	
  3.400	 41.398	 10.94173	  5.33237	  3.87937	  5.32422	  3.76906	  0.22322	 10.95888	710.76001	 23.90	
  3.394	 69.283	 10.94311	  4.84061	  4.31662	  5.69179	  3.44203	  0.21261	 10.96814	710.62000	 23.90	
  3.399	 96.763	 10.93239	  4.28716	  4.84292	  5.80003	  3.33837	  0.19025	 10.96147	710.69000	 23.90	
  3.397	124.529	 10.93212	  3.80151	  5.34928	  5.61562	  3.49578	  0.16245	 10.96711	710.75000	 23.90	
  3.388	152.325	 10.92878	  3.44993	  5.76700	  5.20346	  3.86107	  0.14956	 10.96693	710.64001	 23.90	
  5.099	161.165	 10.85643	  2.77884	  6.35370	  5.16894	  3.71088	  0.06894	 10.96466	710.70001	 23.90	
  5.109	142.013	 10.86231	  3.04132	  6.03640	  5.69268	  3.24210	  0.07892	 10.96560	710.77002	 23.90	
  5.095	123.033	 10.87620	  3.46639	  5.56015	  6.10641	  2.91498	  0.09754	 10.97232	710.70001	 24.00	
  5.105	104.191	 10.87698	  3.96974	  5.01933	  6.32174	  2.74689	  0.11657	 10.96082	710.72998	 23.90	
  5.093	 85.207	 10.89460	  4.53840	  4.44802	  6.35281	  2.73886	  0.14320	 10.97053	710.70001	 24.00	
  5.104	 66.290	 10.90303	  5.10325	  3.90929	  6.17704	  2.88367	  0.17774	 10.97406	710.66998	 24.00	
  5.094	 47.331	 10.91250	  5.61375	  3.47011	  5.81303	  3.20888	  0.19115	 10.97340	710.69000	 24.00	
  5.089	 28.397	 10.91102	  5.99406	  3.17308	  5.30206	  3.66932	  0.19062	 10.96795	710.59998	 24.00	
  5.096	  9.576	 10.91396	  6.16507	  3.03894	  4.75175	  4.17168	  0.17857	 10.96945	710.63000	 24.00	
  5.096	 -9.576	 10.91063	  6.15204	  3.05840	  4.18698	  4.72865	  0.17771	 10.96120	710.62000	 24.00	
  5.089	-28.397	 10.90640	  5.90563	  3.25751	  3.67020	  5.29120	  0.15339	 10.96325	710.67999	 24.00	
  5.094	-47.331	 10.91156	  5.50983	  3.60419	  3.25939	  5.76848	  0.14722	 10.97427	710.71002	 24.00	
  5.104	-66.290	 10.90372	  4.98525	  4.08009	  3.01248	  6.08012	  0.11732	 10.97415	710.67999	 24.00	
  5.093	-85.207	 10.89714	  4.42480	  4.62934	  2.93079	  6.19615	  0.10950	 10.97341	710.71997	 24.00	
  5.105	-104.191	 10.88048	  3.87106	  5.19039	  2.98007	  6.09860	  0.09007	 10.96977	710.71002	 24.00	
  5.095	-123.033	 10.88230	  3.38004	  5.74027	  3.20144	  5.81890	  0.08331	 10.97597	710.65997	 24.00	
  5.109	-142.013	 10.86537	  2.99508	  6.15833	  3.52507	  5.40301	  0.08027	 10.96896	710.72998	 24.00	
  5.099	-161.165	 10.86688	  2.75754	  6.43243	  4.03552	  4.84226	  0.06739	 10.97494	710.59998	 24.00	
  5.100	180.000	 10.85914	  2.68093	  6.49833	  4.59330	  4.26722	  0.06674	 10.97066	710.60999	 24.00	
  6.800	180.000	 10.74761	  2.00974	  7.04016	  4.50110	  4.11326	 -0.01639	 10.97224	710.58002	 24.00	
  6.796	-166.229	 10.75577	  2.06037	  6.99976	  3.94143	  4.68468	 -0.02208	 10.97748	710.70001	 24.00	
  6.808	-152.311	 10.75040	  2.22402	  6.80469	  3.40744	  5.25492	 -0.01780	 10.96894	710.71002	 24.00	
  6.795	-138.383	 10.75546	  2.50417	  6.47726	  2.96745	  5.76936	 -0.00623	 10.96744	710.78003	 24.00	
  6.792	-124.591	 10.77067	  2.89257	  6.05025	  2.65409	  6.19471	 -0.00381	 10.97192	710.78003	 24.00	
  6.787	-110.754	 10.78198	  3.35905	  5.53749	  2.43321	  6.51304	 -0.00212	 10.97480	710.71002	 24.00	
  6.800	-96.985	 10.79712	  3.87454	  4.98169	  2.29898	  6.70473	  0.00802	 10.97743	710.83002	 24.00	
  6.800	-83.015	 10.79906	  4.42626	  4.41059	  2.27416	  6.74162	  0.01625	 10.96848	710.65002	 24.00	
  6.787	-69.246	 10.81532	  4.99481	  3.87684	  2.37136	  6.62524	  0.02747	 10.97162	710.65997	 24.00	
  6.792	-55.409	 10.82335	  5.53791	  3.38757	  2.56379	  6.37023	  0.04253	 10.97483	710.63000	 24.00	
  6.795	-41.617	 10.82768	  6.00584	  2.98702	  2.86800	  5.99190	  0.05952	 10.97098	710.65997	 24.00	
  6.808	-27.689	 10.83018	  6.38617	  2.67023	  3.28888	  5.50030	  0.07562	 10.96806	710.56000	 24.00	
  6.796	-13.771	 10.84332	  6.63278	  2.47874	  3.80034	  4.94793	  0.09781	 10.97671	710.62000	 24.00	
  6.800	  0.000	 10.84091	  6.72900	  2.40076	  4.34398	  4.38449	  0.10974	 10.97452	710.66998	 24.00	
  6.796	 13.771	 10.84411	  6.66828	  2.43682	  4.91393	  3.83528	  0.11670	 10.97497	710.67999	 24.00	
  6.808	 27.689	 10.83513	  6.46841	  2.57231	  5.47094	  3.31926	  0.12044	 10.97027	710.67999	 24.00	
  6.795	 41.617	 10.82428	  6.12511	  2.83325	  5.98203	  2.86649	  0.11458	 10.97157	710.76001	 24.00	
  6.792	 55.409	 10.82055	  5.68429	  3.19353	  6.39995	  2.51291	  0.11389	 10.97193	710.71997	 24.00	
  6.787	 69.246	 10.81589	  5.15813	  3.65417	  6.70939	  2.25434	  0.10174	 10.97545	710.66998	 24.00	
  6.800	 83.015	 10.79569	  4.59231	  4.16651	  6.87866	  2.09681	  0.06909	 10.96812	710.73999	 24.00	
  6.800	 96.985	 10.79554	  4.02157	  4.73025	  6.90544	  2.06571	  0.04242	 10.97738	710.66998	 24.00	
  6.787	110.754	 10.78822	  3.48620	  5.29606	  6.77154	  2.15670	  0.02199	 10.97865	710.76001	 24.00	
  6.792	124.591	 10.77564	  3.00139	  5.83516	  6.50477	  2.35281	  0.01260	 10.97627	710.76001	 24.00	
  6.795	138.383	 10.76661	  2.60136	  6.30467	  6.12493	  2.65516	  0.00144	 10.97918	710.70001	 24.00	
  6.808	152.311	 10.75542	  2.27754	  6.68601	  5.63296	  3.06418	 -0.01557	 10.97260	710.77002	 24.00	
  6.796	166.229	 10.75383	  2.09099	  6.93338	  5.07493	  3.57447	 -0.01857	 10.97273	710.75000	 24.00	
  8.491	168.704	 10.59396	  1.40655	  7.45968	  4.97506	  3.38106	 -0.11649	 10.97193	710.72998	 24.00	
  8.502	157.493	 10.60405	  1.57173	  7.24729	  5.55761	  2.86413	 -0.11769	 10.97667	710.71002	 24.00	
  8.494	146.194	 10.61338	  1.83486	  6.91868	  6.09485	  2.40369	 -0.10891	 10.98021	710.73999	 24.00	
  8.495	135.039	 10.61563	  2.17411	  6.48760	  6.55034	  2.03503	 -0.08942	 10.97240	710.66998	 24.00	
  8.487	123.723	 10.63007	  2.59288	  5.98683	  6.94452	  1.73172	 -0.08389	 10.97627	710.71997	 24.00	
  8.492	112.575	 10.63791	  3.07081	  5.43927	  7.23115	  1.52246	 -0.08745	 10.97576	710.78998	 24.00	
  8.510	101.220	 10.64723	  3.62142	  4.85094	  7.40506	  1.40152	 -0.07209	 10.97799	710.85999	 24.00	
  8.500	 90.000	 10.66269	  4.19120	  4.27519	  7.44817	  1.39183	 -0.04158	 10.97935	710.77002	 24.00	
  8.510	 78.780	 10.66986	  4.77465	  3.71472	  7.36315	  1.46512	 -0.02463	 10.97808	710.84003	 24.00	
  8.492	 67.425	 10.68514	  5.36320	  3.19047	  7.14621	  1.64916	 -0.00406	 10.98155	710.90997	 24.00	
  8.487	 56.277	 10.69044	  5.89513	  2.74236	  6.81967	  1.91680	  0.00963	 10.97076	710.83002	 24.00	
  8.495	 44.961	 10.69955	  6.37080	  2.36789	  6.39492	  2.27287	  0.02482	 10.96905	710.83002	 24.10	
  8.494	 33.806	 10.71015	  6.75916	  2.07471	  5.91346	  2.68217	  0.03827	 10.97307	710.77002	 24.00	
  8.502	 22.507	 10.71964	  7.05452	  1.87014	  5.35707	  3.17811	  0.03283	 10.97283	710.75000	 24.00	
  8.491	 11.296	 10.72342	  7.21839	  1.76563	  4.77677	  3.72249	  0.02576	 10.97729	710.78003	 24.10	
  8.500	  0.000	 10.72468	  7.26725	  1.73867	  4.19456	  4.29133	  0.02270	 10.97716	710.82001	 24.10	
  8.491	-11.296	 10.71887	  7.18059	  1.80942	  3.62407	  4.87777	  0.00918	 10.97394	710.78003	 24.10	
  8.502	-22.507	 10.71438	  6.97003	  1.97451	  3.08880	  5.45656	 -0.01419	 10.97354	710.83002	 24.10	
  8.494	-33.806	 10.71097	  6.63666	  2.23510	  2.62989	  5.98718	 -0.03396	 10.97706	710.91998	 24.10	
  8.495	-44.961	 10.70408	  6.21419	  2.57733	  2.24339	  6.45088	 -0.04454	 10.97434	710.78003	 24.10	
  8.487	-56.277	 10.70071	  5.71020	  2.99813	  1.94356	  6.83553	 -0.06407	 10.98144	710.88000	 24.10	
  8.492	-67.425	 10.69010	  5.16407	  3.47588	  1.74125	  7.11139	 -0.08458	 10.98062	710.89001	 24.10	
  8.510	-78.780	 10.67406	  4.57336	  4.02151	  1.61995	  7.26269	 -0.08842	 10.97643	710.90997	 24.10	
  8.500	-90.000	 10.66259	  3.99679	  4.58765	  1.59749	  7.28214	 -0.09015	 10.97454	710.87000	 24.10	
  8.510	-101.220	 10.65127	  3.44371	  5.16465	  1.65829	  7.18272	 -0.10018	 10.97929	710.84003	 24.10	
  8.492	-112.575	 10.64011	  2.91631	  5.74146	  1.81395	  6.95090	 -0.11008	 10.97807	710.76001	 24.10	
  8.487	-123.723	 10.62808	  2.46318	  6.25537	  2.04725	  6.61492	 -0.10786	 10.97412	710.84998	 24.10	
  8.495	-135.039	 10.61494	  2.05732	  6.72574	  2.36449	  6.17876	 -0.10406	 10.96962	710.84998	 24.10	
  8.494	-146.194	 10.60627	  1.73476	  7.10458	  2.76751	  5.67928	 -0.11214	 10.97470	710.81000	 24.10	
  8.502	-157.493	 10.59821	  1.49886	  7.38297	  3.25128	  5.11893	 -0.12090	 10.97561	710.82001	 24.10	
  8.491	-168.704	 10.59586	  1.37067	  7.53007	  3.80345	  4.52990	 -0.12114	 10.97722	710.83002	 24.10	
  8.500	180.000	 10.59760	  1.33241	  7.56804	  4.38726	  3.94277	 -0.11582	 10.98010	710.79999	 24.10	
 10.200	180.000	 10.39968	  0.67997	  8.04404	  4.23826	  3.75336	 -0.22245	 10.97720	710.85999	 24.10	
 10.191	-170.497	 10.40158	  0.70726	  8.02913	  3.64935	  4.34252	 -0.22328	 10.97888	710.77002	 24.10	
 10.210	-161.034	 10.40587	  0.81118	  7.90777	  3.08356	  4.94484	 -0.22380	 10.97860	710.83002	 24.10	
 10.194	-151.526	 10.41528	  1.00592	  7.67106	  2.58093	  5.52645	 -0.21486	 10.97909	710.77002	 24.10	
 10.190	-142.105	 10.42083	  1.27650	  7.34114	  2.13464	  6.07228	 -0.19875	 10.97380	710.82001	 24.10	
 10.215	-132.646	 10.42827	  1.61330	  6.92577	  1.75019	  6.57627	 -0.20030	 10.97176	710.81000	 24.10	
 10.203	-123.092	 10.44429	  2.01916	  6.44160	  1.44225	  7.01340	 -0.20645	 10.97935	710.71997	 24.10	
 10.192	-113.678	 10.46004	  2.47169	  5.91520	  1.21480	  7.35054	 -0.21187	 10.98213	710.82001	 24.10	
 10.208	-104.249	 10.46538	  2.97405	  5.34827	  1.04803	  7.59874	 -0.20388	 10.97260	710.82001	 24.10	
 10.210	-94.801	 10.48454	  3.52869	  4.76040	  0.95884	  7.75295	 -0.19241	 10.97964	710.83002	 24.10	
 10.210	-85.199	 10.48878	  4.10609	  4.16905	  0.94140	  7.78219	 -0.19538	 10.97060	710.71997	 24.10	
 10.208	-75.751	 10.50141	  4.69703	  3.60364	  0.99100	  7.71967	 -0.19823	 10.97481	710.79999	 24.10	
 10.192	-66.322	 10.51776	  5.28616	  3.06870	  1.11823	  7.54979	 -0.19014	 10.97810	710.76001	 24.10	
 10.203	-56.908	 10.51890	  5.84074	  2.58033	  1.30794	  7.26973	 -0.17504	 10.96824	710.91998	 24.10	
 10.215	-47.354	 10.53051	  6.37345	  2.14540	  1.58537	  6.89602	 -0.15969	 10.97295	710.85999	 24.10	
 10.190	-37.895	 10.54404	  6.83784	  1.78606	  1.96228	  6.43340	 -0.14903	 10.97568	710.78998	 24.10	
 10.194	-28.474	 10.54830	  7.21595	  1.49125	  2.38803	  5.91629	 -0.13382	 10.97141	710.77002	 24.10	
 10.210	-18.966	 10.55267	  7.50982	  1.27024	  2.87817	  5.35272	 -0.11595	 10.97386	710.77002	 24.10	
 10.191	 -9.503	 10.55940	  7.68805	  1.14223	  3.43524	  4.75670	 -0.08656	 10.97157	710.73999	 24.10	
 10.200	  0.000	 10.56257	  7.77067	  1.07595	  4.01168	  4.16172	 -0.07554	 10.97753	710.67999	 24.10	
 10.191	  9.503	 10.56313	  7.73196	  1.09396	  4.59754	  3.58481	 -0.07133	 10.97297	710.70001	 24.10	
 10.210	 18.966	 10.55966	  7.59695	  1.17132	  5.19524	  3.02158	 -0.06918	 10.97827	710.82001	 24.10	
 10.194	 28.474	 10.55055	  7.34151	  1.33700	  5.77275	  2.50688	 -0.05764	 10.97371	710.82001	 24.10	
 10.190	 37.895	 10.54207	  7.00011	  1.58289	  6.30468	  2.05896	 -0.05623	 10.97391	710.87000	 24.10	
 10.215	 47.354	 10.53605	  6.57673	  1.89746	  6.80345	  1.65144	 -0.07502	 10.97895	710.79999	 24.10	
 10.203	 56.908	 10.52547	  6.07348	  2.28660	  7.22447	  1.30599	 -0.09933	 10.98117	710.82001	 24.10	
 10.192	 66.322	 10.50760	  5.52451	  2.73098	  7.55011	  1.04827	 -0.11399	 10.97319	710.96002	 24.10	
 10.208	 75.751	 10.49722	  4.94030	  3.23985	  7.78777	  0.85970	 -0.12882	 10.97755	710.79999	 24.10	
 10.210	 85.199	 10.48250	  4.34603	  3.79062	  7.91597	  0.75140	 -0.13671	 10.97618	710.70001	 24.10	
 10.210	 94.801	 10.47338	  3.75179	  4.37390	  7.93882	  0.72465	 -0.16317	 10.98097	710.77002	 24.10	
 10.208	104.249	 10.45785	  3.18022	  4.96409	  7.84917	  0.77375	 -0.18768	 10.97600	710.82001	 24.10	
 10.192	113.678	 10.45136	  2.64510	  5.55377	  7.65611	  0.89888	 -0.19679	 10.97899	710.82001	 24.10	
 10.203	123.092	 10.44090	  2.17517	  6.10802	  7.36522	  1.11133	 -0.19800	 10.97794	710.78998	 24.10	
 10.215	132.646	 10.42747	  1.74581	  6.62926	  6.97365	  1.39838	 -0.19805	 10.97366	710.96002	 24.10	
 10.190	142.105	 10.41819	  1.39726	  7.08811	  6.51040	  1.76086	 -0.20868	 10.97376	710.84003	 24.10	
 10.194	151.526	 10.40604	  1.11076	  7.46286	  5.99974	  2.17026	 -0.21985	 10.96954	710.70001	 24.10	
 10.210	161.034	 10.40571	  0.88347	  7.76656	  5.44119	  2.64874	 -0.22237	 10.97813	710.83002	 24.10	
 10.191	170.497	 10.40457	  0.74070	  7.95946	  4.83941	  3.18725	 -0.22048	 10.97771	710.75000	 24.10	
 11.899	171.783	 10.17216	  0.08788	  8.42028	  4.66751	  2.97084	 -0.31436	 10.97728	710.79999	 24.10	
 11.890	163.610	 10.17682	  0.22297	  8.24319	  5.27761	  2.43242	 -0.32533	 10.97892	710.79999	 24.10	
 11.889	155.445	 10.18422	  0.41777	  7.97702	  5.85929	  1.94377	 -0.33014	 10.97896	710.73999	 24.20	
 11.909	147.299	 10.18912	  0.65289	  7.64013	  6.40065	  1.49939	 -0.32212	 10.97993	710.75000	 24.10	
 11.902	139.148	 10.19134	  0.95343	  7.21738	  6.90337	  1.11136	 -0.31062	 10.97343	710.76001	 24.10	
 11.894	130.867	 10.20541	  1.32433	  6.73173	  7.36195	  0.77521	 -0.30355	 10.97307	710.84003	 24.20	
 11.897	122.732	 10.21339	  1.74801	  6.19808	  7.73644	  0.51378	 -0.30435	 10.97556	710.76001	 24.20	
 11.903	114.597	 10.22220	  2.21253	  5.63745	  8.02939	  0.31112	 -0.30791	 10.97518	710.78003	 24.20	
 11.893	106.346	 10.23948	  2.74134	  5.04602	  8.24487	  0.17854	 -0.30318	 10.97653	710.81000	 24.20	
 11.892	 98.155	 10.25133	  3.30570	  4.44487	  8.36469	  0.11122	 -0.28782	 10.97677	710.72998	 24.20	
 11.900	 90.000	 10.25875	  3.88572	  3.85831	  8.39061	  0.10688	 -0.26343	 10.97263	710.85999	 24.20	
 11.892	 81.845	 10.27139	  4.47569	  3.30237	  8.32107	  0.16798	 -0.24557	 10.97506	710.85999	 24.20	
 11.893	 73.654	 10.29394	  5.08470	  2.76536	  8.16543	  0.28923	 -0.23439	 10.98224	710.73999	 24.20	
 11.903	 65.403	 10.29766	  5.67299	  2.26121	  7.90732	  0.47559	 -0.22783	 10.97594	710.84003	 24.20	
 11.897	 57.268	 10.31070	  6.22386	  1.81924	  7.57962	  0.71868	 -0.20596	 10.97584	710.75000	 24.20	
 11.894	 49.133	 10.32452	  6.73797	  1.43124	  7.17008	  1.03579	 -0.18539	 10.98133	710.78998	 24.20	
 11.902	 40.852	 10.33228	  7.19774	  1.09658	  6.67825	  1.41713	 -0.16436	 10.97098	710.79999	 24.20	
 11.909	 32.701	 10.34404	  7.58085	  0.83157	  6.14810	  1.85314	 -0.15740	 10.97342	710.82001	 24.20	
 11.889	 24.555	 10.35519	  7.87235	  0.64233	  5.59107	  2.33383	 -0.16169	 10.97392	710.78998	 24.20	
 11.890	 16.390	 10.36304	  8.08513	  0.51438	  5.00034	  2.86360	 -0.16652	 10.97394	710.77002	 24.20	
 11.899	  8.217	 10.35983	  8.20712	  0.44348	  4.39611	  3.42651	 -0.17196	 10.97112	710.78998	 24.20	
 11.900	  0.000	 10.36562	  8.23692	  0.42871	  3.80640	  4.00901	 -0.17710	 10.97400	710.82001	 24.20	
 11.899	 -8.217	 10.36171	  8.17360	  0.48530	  3.22644	  4.61311	 -0.18674	 10.97303	710.72998	 24.20	
 11.890	-16.390	 10.35795	  8.00153	  0.60661	  2.67005	  5.21933	 -0.21316	 10.97802	710.78003	 24.20	
 11.889	-24.555	 10.35479	  7.74735	  0.79113	  2.15960	  5.79612	 -0.23517	 10.97988	710.77002	 24.20	
 11.909	-32.701	 10.34483	  7.40783	  1.03016	  1.69312	  6.34544	 -0.25491	 10.97405	710.78998	 24.20	
 11.902	-40.852	 10.33302	  6.98335	  1.33900	  1.28663	  6.85249	 -0.26281	 10.97936	710.77002	 24.20	
 11.894	-49.133	 10.33049	  6.48515	  1.72914	  0.95068	  7.30649	 -0.26092	 10.98027	710.88000	 24.20	
 11.897	-57.268	 10.32241	  5.95267	  2.16138	  0.70359	  7.66317	 -0.27608	 10.97729	710.71002	 24.20	
 11.903	-65.403	 10.31398	  5.39173	  2.64332	  0.51829	  7.94839	 -0.28424	 10.98007	710.70001	 24.20	
 11.893	-73.654	 10.29402	  4.78961	  3.17189	  0.39264	  8.13731	 -0.28616	 10.96922	710.83002	 24.20	
 11.892	-81.845	 10.28566	  4.19155	  3.73486	  0.32331	  8.24293	 -0.27843	 10.97731	710.81000	 24.20	
 11.900	-90.000	 10.27390	  3.61250	  4.30489	  0.30747	  8.25379	 -0.27105	 10.97670	710.87000	 24.20	
 11.892	-98.155	 10.25602	  3.04430	  4.89493	  0.35703	  8.16187	 -0.27618	 10.97420	710.90002	 24.20	
 11.893	-106.346	 10.24641	  2.50583	  5.48670	  0.46230	  7.98053	 -0.28019	 10.97561	710.90997	 24.20	
 11.903	-114.597	 10.23138	  2.00473	  6.06227	  0.63687	  7.70854	 -0.28362	 10.97549	710.90002	 24.20	
 11.897	-122.732	 10.21987	  1.56381	  6.59552	  0.86208	  7.35552	 -0.28775	 10.97771	710.89001	 24.20	
 11.894	-130.867	 10.20906	  1.16522	  7.09035	  1.15194	  6.93038	 -0.28088	 10.97584	710.84998	 24.20	
 11.902	-139.148	 10.19592	  0.82091	  7.53269	  1.50668	  6.43869	 -0.28254	 10.97714	710.78998	 24.20	
 11.909	-147.299	 10.18040	  0.52840	  7.89617	  1.91137	  5.89292	 -0.29800	 10.97253	710.78998	 24.20	
 11.889	-155.445	 10.17614	  0.31747	  8.17627	  2.38833	  5.32364	 -0.30551	 10.97404	710.81000	 24.20	
 11.890	-163.610	 10.17256	  0.15413	  8.38273	  2.90386	  4.73967	 -0.31288	 10.98235	710.83002	 24.20	
 11.899	-171.783	 10.16797	  0.06075	  8.48908	  3.47023	  4.13455	 -0.31678	 10.97936	710.85999	 24.20	
 11.900	180.000	 10.16619	  0.03601	  8.50323	  4.06413	  3.53596	 -0.31474	 10.97553	710.79999	 24.20	
 13.600	180.000	  9.88929	 -0.59660	  8.92427	  3.85627	  3.29138	 -0.39192	 10.97709	710.79999	 24.20	
 13.608	-172.853	  9.88688	 -0.58232	  8.91856	  3.26793	  3.87434	 -0.39510	 10.97508	710.81000	 24.20	
 13.611	-165.583	  9.89179	 -0.49940	  8.83094	  2.69877	  4.48807	 -0.38921	 10.98000	710.82001	 24.20	
 13.601	-158.353	  9.89910	 -0.35815	  8.65084	  2.17660	  5.08355	 -0.37079	 10.97472	710.87000	 24.20	
 13.609	-151.210	  9.90880	 -0.16964	  8.39553	  1.68966	  5.67232	 -0.35781	 10.97430	710.81000	 24.20	
 13.611	-143.999	  9.91701	  0.07429	  8.06368	  1.26030	  6.23919	 -0.34344	 10.96976	710.94000	 24.20	
 13.601	-136.825	  9.92619	  0.36592	  7.67114	  0.88755	  6.76179	 -0.33301	 10.96842	711.03003	 24.20	
 13.596	-129.640	  9.95230	  0.70771	  7.22539	  0.56906	  7.24626	 -0.32867	 10.97970	710.88000	 24.20	
