FileType=PCF
NHL=14
Date=05/30/19	11:39:30
Facility=APL
Serial=16071-1
Customer=NASA
NP=6
Mach=0.550000
Calibration=1:1
CalPts=490
TstPts=95
PortNumbering=AP Standard
Units=Torr C m/s kg/m^3 deg mm 
Theta[deg]	Phi[deg]	P1[Torr]	P2[Torr]	P3[Torr]	P4[Torr]	P5[Torr]	P6[Torr]	Pt[Torr]	Ps[Abs,Torr]	Ts[C]	
  0.000	  0.000	162.60788	 74.43887	 80.68880	 70.67951	 77.76234	  5.54109	162.49748	702.53003	 41.10	
  1.691	128.401	162.60847	 70.01093	 85.08521	 77.10127	 71.14446	  5.44051	162.50610	702.56000	 41.10	
  1.692	 77.194	162.65550	 76.75511	 78.57676	 78.80492	 69.82285	  5.51274	162.54640	702.60999	 41.00	
  1.699	 26.182	162.69043	 81.66527	 73.66975	 74.35727	 74.06046	  5.46016	162.56592	702.46997	 41.10	
  1.699	-26.182	162.67194	 81.28091	 73.90163	 67.06866	 81.21896	  5.40901	162.57811	702.52002	 41.10	
  1.692	-77.194	162.61519	 75.56572	 79.16294	 63.01089	 85.26192	  5.38237	162.56305	702.47998	 41.10	
  1.691	-128.401	162.56190	 69.07174	 85.54945	 64.69975	 83.71259	  5.34476	162.55165	702.62000	 41.20	
  1.700	180.000	162.59048	 66.61723	 88.28190	 70.36469	 77.34073	  5.35857	162.56673	702.53003	 41.20	
  3.400	180.000	162.25581	 58.22735	 95.79996	 70.25809	 76.54350	  4.86357	162.58876	702.58002	 41.30	
  3.388	-152.325	162.16040	 59.67178	 94.10497	 63.17474	 83.77849	  4.89019	162.59656	702.56000	 41.30	
  3.397	-124.529	162.19415	 64.35919	 89.22388	 57.21215	 89.58403	  4.94756	162.66096	702.57001	 41.30	
  3.399	-96.763	162.17316	 71.01508	 82.34808	 54.65913	 92.72501	  4.94120	162.61174	702.51001	 41.30	
  3.394	-69.283	162.32213	 78.57872	 75.16883	 55.36811	 92.47244	  4.91431	162.64438	702.60999	 41.30	
  3.400	-41.398	162.54079	 85.39639	 69.02853	 59.77497	 88.19201	  4.83810	162.71373	702.63000	 41.40	
  3.401	-14.021	162.63422	 88.77871	 65.51562	 66.39524	 81.61143	  4.89060	162.70923	702.66998	 41.40	
  3.401	 14.021	162.73848	 89.20708	 65.31779	 74.46922	 73.70834	  4.97951	162.72958	702.50000	 41.30	
  3.400	 41.398	162.79256	 86.65340	 68.31992	 81.56517	 66.91525	  5.09632	162.77792	702.52002	 41.30	
  3.394	 69.283	162.79463	 80.64598	 74.20805	 86.47408	 62.28276	  5.19919	162.78209	702.56000	 41.30	
  3.399	 96.763	162.75543	 73.28188	 81.38190	 87.69228	 61.05137	  5.16127	162.77440	702.46002	 41.30	
  3.397	124.529	162.62784	 66.13013	 88.40812	 84.62965	 63.34133	  5.04792	162.71426	702.40997	 41.40	
  3.388	152.325	162.54456	 60.95493	 93.70773	 77.92799	 68.93166	  4.94237	162.76508	702.44000	 41.40	
  5.099	161.165	161.78093	 51.54895	101.41266	 77.45988	 67.59109	  4.23230	162.81451	702.42999	 41.50	
  5.109	142.013	161.97826	 55.98618	 97.41353	 85.55155	 60.67256	  4.34581	162.80310	702.57001	 41.50	
  5.095	123.033	162.19580	 62.10040	 91.37097	 91.68111	 55.75953	  4.49576	162.83444	702.47998	 41.60	
  5.105	104.191	162.33936	 69.27081	 84.11722	 95.06506	 53.03852	  4.61606	162.84001	702.50000	 41.60	
  5.093	 85.207	162.42619	 76.89825	 76.56374	 95.45813	 52.83480	  4.71189	162.82973	702.47998	 41.70	
  5.104	 66.290	162.39998	 84.32227	 69.34435	 93.44669	 54.77038	  4.69356	162.84009	702.47998	 41.70	
  5.094	 47.331	162.44917	 90.60917	 63.35714	 88.62569	 58.95764	  4.56512	162.88574	702.57001	 41.70	
  5.089	 28.397	162.50621	 94.38674	 59.21919	 81.60941	 65.09583	  4.41489	162.89066	702.48999	 41.70	
  5.096	  9.576	162.44168	 96.50458	 57.13843	 73.62296	 72.70719	  4.34069	162.87131	702.48999	 41.70	
  5.096	 -9.576	162.34088	 96.01289	 57.48804	 65.45818	 80.80537	  4.26351	162.91245	702.41998	 41.70	
  5.089	-28.397	162.16594	 92.77119	 60.07420	 58.30687	 88.20696	  4.21130	162.89030	702.53003	 41.70	
  5.094	-47.331	161.92773	 88.20883	 64.59713	 52.06044	 94.68980	  4.21401	162.86780	702.45001	 41.70	
  5.104	-66.290	161.79161	 81.56574	 70.83442	 47.87841	 99.13380	  4.29894	162.91718	702.52002	 41.70	
  5.093	-85.207	161.62958	 73.84742	 78.17709	 46.13282	100.74912	  4.32358	162.93903	702.46002	 41.70	
  5.105	-104.191	161.48540	 66.16417	 85.65923	 46.72793	 99.79259	  4.36386	162.95345	702.40997	 41.70	
  5.095	-123.033	161.45381	 59.08789	 92.67521	 49.86199	 96.00618	  4.32189	162.92595	702.50000	 41.70	
  5.109	-142.013	161.47501	 53.48272	 98.44959	 54.98291	 90.22977	  4.28418	162.94991	702.35999	 41.70	
  5.099	-161.165	161.52922	 49.99570	102.04877	 62.25413	 83.11227	  4.20317	162.90532	702.32001	 41.70	
  5.100	180.000	161.73589	 49.23327	103.00513	 69.86694	 75.33176	  4.19192	162.94632	702.40997	 41.70	
  6.800	180.000	160.32538	 40.61575	109.50980	 68.91187	 73.74387	  3.63786	162.96136	702.40002	 41.70	
  6.796	-166.229	160.15382	 40.92169	108.84496	 61.42303	 81.51180	  3.64434	162.96133	702.52002	 41.70	
  6.808	-152.311	160.03371	 43.13799	106.47216	 53.84914	 88.66489	  3.74780	162.95302	702.50000	 41.70	
  6.795	-138.383	159.98184	 46.95803	102.24901	 47.66019	 95.42223	  3.80071	162.95825	702.44000	 41.80	
  6.792	-124.591	160.01213	 52.24252	 96.62843	 43.17019	101.09605	  3.83713	163.00685	702.46002	 41.80	
  6.787	-110.754	160.03082	 58.93010	 89.88663	 39.68927	105.14170	  3.83381	162.98380	702.60999	 41.80	
  6.800	-96.985	160.16316	 65.85179	 82.80677	 37.78944	107.46770	  3.86719	163.02335	702.45001	 41.80	
  6.800	-83.015	160.27382	 73.74632	 75.41456	 37.73466	107.82825	  3.79276	162.99489	702.51001	 41.80	
  6.787	-69.246	160.45425	 81.21860	 68.36601	 39.38452	106.30325	  3.78412	162.96783	702.54999	 41.80	
  6.792	-55.409	160.66576	 88.11908	 62.04005	 42.77643	102.82094	  3.73013	162.97322	702.59998	 41.80	
  6.795	-41.617	160.89133	 93.87490	 56.64515	 47.72533	 97.55630	  3.71540	162.95691	702.52002	 41.80	
  6.808	-27.689	161.14040	 98.93085	 52.51147	 53.76113	 90.99860	  3.69560	162.98444	702.53003	 41.80	
  6.796	-13.771	161.32443	102.45338	 49.71404	 60.80729	 83.77521	  3.71080	162.97548	702.38000	 41.80	
  6.800	  0.000	161.52374	104.03363	 48.55246	 68.29696	 76.07386	  3.73026	163.02583	702.44000	 41.80	
  6.796	 13.771	161.67856	103.54426	 49.20532	 76.20640	 68.24055	  3.73251	163.02829	702.47998	 41.80	
  6.808	 27.689	161.68381	101.20418	 51.36665	 83.95871	 60.75866	  3.78216	163.02428	702.51001	 41.80	
  6.795	 41.617	161.65440	 96.71312	 55.21055	 91.26180	 54.77268	  3.90984	163.00388	702.50000	 41.80	
  6.792	 55.409	161.62677	 91.77434	 60.39244	 96.72735	 50.11054	  3.96437	163.01112	702.46002	 41.80	
  6.787	 69.246	161.65192	 85.37977	 66.55944	100.53563	 46.66527	  4.06053	163.03839	702.52002	 41.80	
  6.800	 83.015	161.67635	 78.06895	 73.53113	102.71610	 44.59642	  4.11431	163.03754	702.50000	 41.90	
  6.800	 96.985	161.63943	 70.60355	 80.87842	102.96745	 44.32494	  4.04824	163.07774	702.45001	 41.90	
  6.787	110.754	161.56042	 63.49128	 88.13517	101.21154	 45.79341	  4.02000	163.11198	702.54999	 41.90	
  6.792	124.591	161.32399	 56.63271	 95.15854	 97.33636	 48.81582	  3.94658	163.05208	702.48999	 41.90	
  6.795	138.383	161.15204	 50.94219	101.06710	 91.50600	 53.34876	  3.84065	163.07947	702.46997	 41.80	
  6.808	152.311	160.91431	 45.62461	105.61208	 84.46533	 58.96594	  3.69076	163.10054	702.50000	 41.90	
  6.796	166.229	160.71846	 42.28659	108.29753	 76.59744	 66.03252	  3.60886	163.09189	702.46002	 41.90	
  8.491	168.704	158.82199	 34.91782	115.61757	 75.05502	 64.00840	  3.44840	163.08191	702.35999	 42.00	
  8.502	157.493	159.07825	 37.43565	112.96003	 83.05598	 56.88670	  3.50057	163.10016	702.40997	 42.10	
  8.494	146.194	159.37556	 40.92777	108.47782	 90.95794	 50.71363	  3.61687	163.09520	702.47998	 42.10	
  8.495	135.039	159.68896	 46.08088	103.60098	 97.87927	 45.40193	  3.63977	163.19777	702.47998	 42.10	
  8.487	123.723	159.85190	 52.20439	 97.31589	103.34203	 41.21712	  3.68366	163.14546	702.46002	 42.10	
  8.492	112.575	160.07361	 58.68472	 90.53706	107.31286	 38.32067	  3.66890	163.18747	702.46002	 42.10	
  8.510	101.220	160.22456	 65.98010	 82.96747	109.58596	 36.58425	  3.65568	163.18021	702.46002	 42.10	
  8.500	 90.000	160.33076	 73.44768	 75.51141	109.85838	 36.27657	  3.70322	163.17073	702.45001	 42.20	
  8.510	 78.780	160.33832	 81.02529	 68.13191	108.88722	 37.14919	  3.71246	163.16592	702.45001	 42.20	
  8.492	 67.425	160.29758	 88.43809	 61.13934	106.30901	 39.47473	  3.66689	163.12195	702.35999	 42.30	
  8.487	 56.277	160.31805	 94.66352	 55.07484	102.28780	 42.90707	  3.55902	163.14449	702.44000	 42.30	
  8.495	 44.961	160.36172	100.18249	 49.52295	 96.86496	 47.43693	  3.56252	163.12166	702.46997	 42.30	
  8.494	 33.806	160.43237	105.30418	 44.33176	 90.28477	 53.19829	  3.55269	163.11423	702.52002	 42.20	
  8.502	 22.507	160.45934	108.84547	 41.87525	 82.60190	 59.61689	  3.55707	163.18204	702.44000	 42.20	
  8.491	 11.296	160.36053	110.68651	 40.62977	 74.75219	 66.84894	  3.52314	163.15666	702.51001	 42.20	
  8.500	  0.000	160.18153	111.17204	 40.13838	 66.72987	 74.92030	  3.58319	163.18613	702.53998	 42.10	
  8.491	-11.296	160.02046	109.66034	 41.03161	 59.14186	 82.95043	  3.59354	163.21515	702.57001	 42.10	
  8.502	-22.507	159.76787	106.76181	 42.67345	 51.84647	 90.32143	  3.58109	163.21518	702.57001	 42.10	
  8.494	-33.806	159.55336	102.38143	 45.52061	 45.42743	 97.44481	  3.59358	163.20677	702.45001	 42.20	
  8.495	-44.961	159.31908	 96.67131	 51.18636	 39.74502	103.66478	  3.60415	163.17270	702.48999	 42.30	
  8.487	-56.277	159.06485	 90.31207	 56.96890	 35.02043	108.63021	  3.59469	163.17740	702.60999	 42.40	
  8.492	-67.425	158.83516	 83.43663	 63.44271	 31.77507	112.34920	  3.60391	163.12469	702.41998	 42.50	
  8.510	-78.780	158.56410	 75.65833	 70.44467	 29.69290	114.62506	  3.63711	163.14592	702.46002	 42.50	
  8.500	-90.000	158.46771	 67.58791	 77.87576	 29.37883	115.03059	  3.68699	163.16093	702.57001	 42.50	
  8.510	-101.220	158.29718	 60.44055	 85.09057	 29.98955	113.82810	  3.66997	163.21556	702.57001	 42.50	
  8.492	-112.575	158.18219	 53.15699	 92.45948	 31.95233	110.78598	  3.65577	163.12668	702.56000	 42.50	
  8.487	-123.723	158.19316	 46.87075	 99.21190	 35.20609	106.51737	  3.62676	163.14011	702.50000	 42.40	
  8.495	-135.039	158.18529	 41.40799	105.15750	 39.91168	101.14198	  3.61713	163.20340	702.46997	 42.40	
  8.494	-146.194	158.27802	 36.67677	109.52435	 46.05995	 94.40676	  3.58353	163.19745	702.50000	 42.40	
  8.502	-157.493	158.33678	 34.98034	113.98685	 52.29663	 87.28088	  3.48240	163.24870	702.59003	 42.40	
  8.491	-168.704	158.54610	 33.67010	116.23213	 59.65732	 79.79308	  3.46584	163.17975	702.47998	 42.40	
  8.500	180.000	158.72516	 33.67194	116.81911	 67.79330	 71.85124	  3.48625	163.23576	702.53003	 42.40	
 10.200	180.000	156.29179	 25.44386	122.89740	 65.95692	 69.66835	  3.66354	163.23320	702.54999	 42.40	
 10.191	-170.497	156.01912	 24.93552	122.46233	 57.96718	 77.50026	  3.63934	163.24272	702.51001	 42.50	
 10.210	-161.034	155.88091	 25.96597	120.64165	 50.46939	 85.32491	  3.70773	163.22621	702.41998	 42.50	
 10.194	-151.526	155.78278	 28.49575	117.58809	 44.01854	 92.60507	  3.68269	163.20457	702.45001	 42.50	
 10.190	-142.105	155.76212	 32.12716	112.21078	 37.08879	 99.86160	  3.67474	163.23930	702.42999	 42.50	
 10.215	-132.646	155.80533	 35.38223	107.55490	 31.88888	106.18310	  3.83633	163.25404	702.40997	 42.50	
 10.203	-123.092	155.83754	 41.11684	101.28667	 27.51118	111.71984	  3.92924	163.28842	702.53003	 42.50	
 10.192	-113.678	155.81055	 47.38115	 94.49055	 24.13711	116.30494	  3.92567	163.31079	702.46002	 42.50	
 10.208	-104.249	155.81947	 54.25023	 87.01553	 21.94443	119.57936	  3.94052	163.24794	702.45001	 42.50	
 10.210	-94.801	155.95105	 61.86316	 79.54464	 20.96875	121.49059	  3.94041	163.31488	702.37000	 42.50	
 10.210	-85.199	156.16170	 69.37820	 72.04554	 20.88563	121.86437	  3.96814	163.32050	702.29999	 42.50	
 10.208	-75.751	156.39565	 77.63261	 64.86004	 21.80454	120.91651	  3.92516	163.34993	702.38000	 42.50	
 10.192	-66.322	156.62302	 85.40078	 57.54472	 24.29160	118.34277	  3.84260	163.30888	702.44000	 42.60	
 10.203	-56.908	156.87549	 92.09586	 50.24125	 27.38784	114.45547	  3.79886	163.28409	702.40997	 42.60	
 10.215	-47.354	157.14267	 99.03905	 44.64445	 31.38800	109.35848	  3.77123	163.36316	702.44000	 42.70	
 10.190	-37.895	157.39874	105.02959	 40.97375	 36.76037	103.57195	  3.82477	163.35231	702.40002	 42.70	
 10.194	-28.474	157.64299	110.13593	 37.44902	 42.90523	 96.63631	  3.83198	163.32698	702.54999	 42.70	
 10.210	-18.966	157.90187	113.92923	 34.41348	 49.72857	 89.29411	  3.87581	163.31258	702.45001	 42.60	
 10.191	 -9.503	158.12764	116.45463	 32.63380	 57.18326	 81.74602	  3.83704	163.30670	702.45001	 42.60	
 10.200	  0.000	158.33995	117.70837	 31.88750	 64.88165	 73.71781	  3.78504	163.37367	702.47998	 42.60	
 10.191	  9.503	158.52887	117.51894	 32.30880	 72.80807	 65.66096	  3.74580	163.33595	702.45001	 42.60	
 10.210	 18.966	158.62163	116.02814	 33.53400	 80.72860	 58.31626	  3.71743	163.36058	702.45001	 42.60	
 10.194	 28.474	158.74519	112.85522	 36.09214	 88.73084	 51.20095	  3.67214	163.37694	702.48999	 42.60	
 10.190	 37.895	158.68810	108.76190	 39.54149	 96.09753	 45.05988	  3.60374	163.34999	702.52002	 42.60	
 10.215	 47.354	158.65237	103.22862	 43.17300	102.51779	 40.04282	  3.57466	163.37056	702.39001	 42.50	
 10.203	 56.908	158.56250	 96.87727	 48.33764	107.72150	 35.60674	  3.54873	163.39639	702.50000	 42.50	
 10.192	 66.322	158.59198	 90.94526	 55.33739	111.90716	 32.04812	  3.58859	163.41283	702.47998	 42.50	
 10.208	 75.751	158.57642	 83.59694	 62.45699	115.20694	 29.53527	  3.66808	163.41083	702.46997	 42.40	
 10.210	 85.199	158.56563	 76.13229	 69.83216	116.79783	 28.29912	  3.68480	163.40942	702.41998	 42.40	
 10.210	 94.801	158.51709	 68.33911	 77.43488	116.97651	 28.29950	  3.71070	163.41031	702.40997	 42.40	
 10.208	104.249	158.34709	 61.07384	 84.78190	115.62341	 28.92893	  3.67738	163.35323	702.42999	 42.40	
 10.192	113.678	158.21309	 53.73428	 92.33472	112.60528	 30.83235	  3.64836	163.35329	702.50000	 42.50	
 10.203	123.092	157.99976	 46.92236	 99.36281	108.48708	 33.73341	  3.67202	163.37112	702.40002	 42.50	
 10.215	132.646	157.76605	 41.30646	105.73386	103.83582	 37.71654	  3.73515	163.36055	702.39001	 42.50	
 10.190	142.105	157.52345	 36.64602	110.93710	 97.05980	 42.49849	  3.79300	163.34027	702.53998	 42.50	
 10.194	151.526	157.29364	 32.16899	116.47221	 89.77482	 48.29432	  3.80083	163.38313	702.46002	 42.50	
 10.210	161.034	156.97169	 28.82891	119.86490	 81.36809	 55.05814	  3.67043	163.37888	702.50000	 42.50	
 10.191	170.497	156.70755	 26.93702	122.05887	 73.48756	 61.79062	  3.62231	163.36969	702.47998	 42.50	
 11.899	171.783	153.79118	 17.90404	127.96176	 71.65665	 59.75154	  3.95050	163.38350	702.42999	 42.50	
 11.890	163.610	154.13339	 19.65367	126.04034	 79.30336	 52.43060	  4.04726	163.46640	702.41998	 42.50	
 11.889	155.445	154.39977	 22.35410	122.91195	 87.58572	 45.61321	  4.17081	163.39754	702.53003	 42.50	
 11.909	147.299	154.69359	 25.94239	118.99593	 95.68134	 39.52596	  4.20752	163.44852	702.44000	 42.50	
 11.902	139.148	154.96315	 30.77394	113.03021	102.55610	 34.29766	  4.11058	163.42552	702.51001	 42.50	
 11.894	130.867	155.26753	 36.62784	107.38509	108.53058	 29.80794	  3.87884	163.44588	702.48999	 42.60	
 11.897	122.732	155.50627	 42.03946	100.86533	113.90310	 25.99128	  3.80402	163.44238	702.34998	 42.60	
 11.903	114.597	155.63737	 47.66763	 93.77110	118.07618	 22.93479	  3.86929	163.35997	702.46997	 42.60	
 11.893	106.346	155.80243	 55.28254	 86.31188	121.26419	 20.94926	  3.96845	163.38016	702.37000	 42.70	
 11.892	 98.155	155.99048	 63.01055	 78.66466	122.80994	 20.02975	  3.90184	163.41008	702.40997	 42.70	
 11.900	 90.000	156.10672	 70.35301	 71.24698	123.29427	 19.94156	  3.96071	163.42860	702.28003	 42.80	
 11.892	 81.845	156.16005	 77.89176	 63.63955	122.84873	 20.30157	  3.87365	163.47745	702.46997	 42.80	
 11.893	 73.654	156.15675	 85.62122	 55.32405	120.79911	 21.88018	  3.85771	163.45813	702.39001	 42.80	
 11.903	 65.403	156.15695	 92.89933	 48.33151	117.35301	 24.46134	  3.80628	163.47884	702.41998	 42.80	
 11.897	 57.268	156.11345	 99.14992	 43.00760	112.70128	 27.70848	  3.78077	163.39893	702.37000	 42.80	
 11.894	 49.133	156.17799	105.82491	 38.01815	106.98501	 32.22569	  3.83256	163.35403	702.38000	 42.80	
 11.902	 40.852	156.22765	111.61487	 33.40169	101.11847	 37.25069	  3.89478	163.31966	702.28003	 42.90	
 11.909	 32.701	156.24442	116.36868	 29.40221	 94.02438	 42.90279	  3.96299	163.32112	702.23999	 42.90	
 11.889	 24.555	156.34561	119.99679	 26.56995	 86.28278	 49.07168	  4.00339	163.36961	702.25000	 42.90	
 11.890	 16.390	156.30144	122.56760	 24.61424	 78.39169	 56.19738	  4.07193	163.39226	702.28998	 42.90	
 11.899	  8.217	156.17572	123.83356	 23.47816	 70.51389	 63.48321	  4.11851	163.42560	702.15997	 42.90	
 11.900	  0.000	155.92796	123.92159	 23.06506	 62.70362	 71.23052	  4.17535	163.41742	702.25000	 42.90	
 11.899	 -8.217	155.75319	122.93456	 23.57217	 54.77926	 79.20517	  4.19983	163.44743	702.39001	 42.90	
 11.890	-16.390	155.54939	120.52702	 25.13471	 47.46544	 87.11246	  4.20752	163.43315	702.34998	 42.90	
 11.889	-24.555	155.24605	117.25430	 27.67875	 40.39383	 94.48486	  4.21827	163.45016	702.46002	 42.90	
 11.909	-32.701	155.03505	112.81715	 31.11304	 33.78986	102.01251	  4.22129	163.51158	702.46997	 43.00	
 11.902	-40.852	154.71388	107.07673	 35.28801	 28.31921	108.50467	  4.15919	163.47522	702.37000	 43.00	
 11.894	-49.133	154.39867	100.45365	 40.16100	 23.48790	114.56463	  4.14796	163.43922	702.45001	 42.90	
 11.897	-57.268	154.14278	 93.76134	 45.07492	 19.48488	119.73441	  4.14194	163.47865	702.40997	 42.90	
 11.903	-65.403	153.87863	 86.82908	 50.69075	 16.30125	123.65540	  4.15816	163.48785	702.39001	 42.90	
 11.893	-73.654	153.69884	 78.94858	 57.82487	 14.25624	126.24236	  4.14460	163.48563	702.34998	 43.00	
 11.892	-81.845	153.48335	 70.48549	 66.16140	 12.88897	127.53159	  4.09629	163.46103	702.34998	 43.00	
 11.900	-90.000	153.26979	 63.42888	 73.57343	 12.28981	127.69197	  4.12759	163.45627	702.32001	 43.00	
 11.892	-98.155	153.14041	 55.40125	 81.21727	 12.65366	127.01792	  4.16904	163.48688	702.25000	 43.00	
 11.893	-106.346	153.00711	 48.02340	 88.77767	 13.85429	124.83651	  4.26693	163.46805	702.33002	 43.00	
 11.903	-114.597	152.90742	 40.85103	 96.26519	 16.29865	121.48473	  4.24441	163.44601	702.35999	 43.10	
 11.897	-122.732	152.91547	 34.96981	103.16841	 19.72985	116.89794	  4.23998	163.49861	702.23999	 43.10	
 11.894	-130.867	153.01498	 30.83442	109.55605	 24.04312	111.33023	  4.11544	163.52773	702.22998	 43.10	
 11.902	-139.148	152.89435	 26.00739	114.72325	 28.85169	104.96974	  3.91812	163.47417	702.25000	 43.20	
 11.909	-147.299	153.00801	 21.97840	120.51010	 34.41326	 97.95782	  3.94236	163.51671	702.39001	 43.20	
 11.889	-155.445	153.05374	 18.71000	124.26714	 41.66533	 90.87342	  3.94425	163.51213	702.34003	 43.20	
 11.890	-163.610	153.16704	 16.86758	126.96876	 48.92891	 83.08938	  3.99963	163.49788	702.31000	 43.30	
 11.899	-171.783	153.39171	 16.21523	128.64757	 55.96159	 75.48978	  3.96385	163.54008	702.33002	 43.40	
 11.900	180.000	153.64267	 16.74708	128.88884	 63.96271	 67.67596	  3.94327	163.52232	702.34998	 43.40	
 13.600	180.000	150.20503	  7.74200	134.39612	 61.51461	 64.58511	  4.29956	163.53131	702.27002	 43.40	
 13.608	-172.853	149.94655	  7.04280	134.20149	 53.91930	 71.32590	  4.31632	163.53389	702.28003	 43.40	
 13.611	-165.583	149.72821	  7.71887	132.76651	 46.41139	 79.37595	  4.33681	163.47041	702.37000	 43.30	
 13.601	-158.353	149.63878	  9.56223	130.35904	 38.93274	 87.28624	  4.22253	163.49756	702.22998	 43.30	
 13.609	-151.210	149.51448	 12.14476	126.92255	 31.77601	 94.63577	  4.22088	163.48222	702.35999	 43.20	
 13.611	-143.999	149.42648	 15.33354	122.52315	 25.68480	102.18097	  4.21728	163.49792	702.34998	 43.30	
 13.601	-136.825	149.38440	 19.31163	116.51756	 20.39982	108.84333	  4.25655	163.49739	702.26001	 43.20	
 13.596	-129.640	149.31194	 24.51575	110.95607	 15.82547	115.16689	  4.41638	163.44722	702.23999	 43.20	
