FileType=PCF
NHL=14
Date=03/13/19	09:11:25
Facility=APL
Serial=16071-1
Customer=NASA
NP=6
Mach=0.300000
Calibration=1:1
CalPts=490
TstPts=95
PortNumbering=AP Standard
Units=Torr C m/s kg/m^3 deg mm 
Theta[deg]	Phi[deg]	P1[Torr]	P2[Torr]	P3[Torr]	P4[Torr]	P5[Torr]	P6[Torr]	Pt[Torr]	Ps[Abs,Torr]	Ts[C]	
  0.000	  0.000	 42.87450	 17.84661	 19.53919	 18.86791	 17.58990	  0.84427	 42.82040	712.46002	 19.30	
  1.691	128.401	 42.86813	 16.45594	 20.67235	 20.67031	 15.63193	  0.77433	 42.81784	712.44000	 19.30	
  1.692	 77.194	 42.86670	 18.21890	 18.91524	 21.08752	 15.29300	  0.85216	 42.81771	712.44000	 19.30	
  1.699	 26.182	 42.89814	 19.82263	 17.38543	 19.72116	 16.62109	  0.88906	 42.83448	712.53003	 19.30	
  1.699	-26.182	 42.89119	 19.75999	 17.54315	 17.81863	 18.66702	  0.86399	 42.84005	712.51001	 19.30	
  1.692	-77.194	 42.89376	 18.17354	 19.13958	 16.71439	 19.90189	  0.80321	 42.83881	712.39001	 19.20	
  1.691	-128.401	 42.90911	 16.36989	 20.80374	 17.21137	 19.30397	  0.74964	 42.86565	712.42999	 19.20	
  1.700	180.000	 42.89000	 15.55320	 21.34406	 18.91523	 17.38614	  0.72633	 42.85853	712.46002	 19.20	
  3.400	180.000	 42.75338	 13.12592	 23.66429	 18.83037	 17.06087	  0.54891	 42.85033	712.35999	 19.20	
  3.388	-152.325	 42.78721	 13.58164	 23.21563	 16.80428	 19.27498	  0.55745	 42.85883	712.29999	 19.20	
  3.397	-124.529	 42.80590	 14.94475	 21.72589	 15.16952	 21.24019	  0.59775	 42.85804	712.38000	 19.20	
  3.399	-96.763	 42.85242	 17.00080	 20.10520	 14.37698	 22.26188	  0.64262	 42.88631	712.29999	 19.20	
  3.394	-69.283	 42.88095	 19.02172	 18.02200	 14.56222	 22.10430	  0.69804	 42.88209	712.25000	 19.20	
  3.400	-41.398	 42.90403	 21.02430	 15.96984	 15.69241	 20.79122	  0.75252	 42.88799	712.37000	 19.20	
  3.401	-14.021	 42.92444	 22.20985	 14.88603	 17.50985	 18.74576	  0.80497	 42.90603	712.34003	 19.20	
  3.401	 14.021	 42.92434	 22.30018	 14.75582	 19.59027	 16.48307	  0.84990	 42.90491	712.31000	 19.20	
  3.400	 41.398	 42.90265	 21.24722	 15.61576	 21.55867	 14.46553	  0.83708	 42.89154	712.32001	 19.20	
  3.394	 69.283	 42.87420	 19.29772	 17.33945	 22.75749	 13.08048	  0.79405	 42.88810	712.33002	 19.20	
  3.399	 96.763	 42.86520	 17.27950	 19.66798	 23.10455	 12.71666	  0.72172	 42.90977	712.42999	 19.20	
  3.397	124.529	 42.85433	 15.20435	 21.27410	 22.36874	 13.36020	  0.62644	 42.92766	712.41998	 19.20	
  3.388	152.325	 42.84439	 13.73484	 22.97593	 20.99835	 14.96030	  0.56026	 42.91668	712.35999	 19.20	
  5.099	161.165	 42.56873	 11.14603	 25.33689	 20.85713	 14.40910	  0.30455	 42.92683	712.42999	 19.30	
  5.109	142.013	 42.55642	 12.18266	 24.01250	 23.07684	 12.43440	  0.34358	 42.91016	712.40002	 19.30	
  5.095	123.033	 42.59853	 13.84297	 22.05567	 24.66799	 11.01551	  0.40854	 42.91872	712.41998	 19.30	
  5.105	104.191	 42.63140	 15.93344	 20.37803	 25.53806	 10.23275	  0.47386	 42.93555	712.39001	 19.30	
  5.093	 85.207	 42.66445	 18.15158	 18.02178	 25.32942	 10.20105	  0.58457	 42.92756	712.50000	 19.30	
  5.104	 66.290	 42.69869	 20.30030	 15.81934	 24.64104	 10.82050	  0.65186	 42.92805	712.42999	 19.30	
  5.094	 47.331	 42.72129	 22.34635	 14.05524	 23.17313	 12.18005	  0.69691	 42.90786	712.46002	 19.30	
  5.089	 28.397	 42.77136	 23.79743	 12.89785	 21.57000	 14.09685	  0.72182	 42.92760	712.42999	 19.30	
  5.096	  9.576	 42.79730	 24.51751	 12.34835	 19.29143	 16.30166	  0.70059	 42.92910	712.41998	 19.30	
  5.096	 -9.576	 42.81516	 24.44298	 12.47450	 17.15940	 18.62549	  0.66845	 42.95029	712.44000	 19.30	
  5.089	-28.397	 42.79611	 23.55501	 13.28526	 15.13609	 20.90425	  0.61004	 42.92274	712.50000	 19.30	
  5.094	-47.331	 42.77139	 21.99124	 14.64869	 13.47391	 22.82852	  0.54441	 42.93682	712.45001	 19.40	
  5.104	-66.290	 42.75617	 19.87887	 16.53060	 12.40060	 24.04665	  0.48285	 42.93470	712.40002	 19.40	
  5.093	-85.207	 42.72592	 17.74764	 18.94231	 11.98995	 24.48187	  0.44065	 42.95038	712.40002	 19.40	
  5.105	-104.191	 42.69902	 15.52063	 21.06679	 12.21846	 24.15414	  0.38567	 42.95759	712.45001	 19.40	
  5.095	-123.033	 42.63836	 13.47719	 22.82868	 13.07987	 23.05012	  0.35288	 42.93741	711.82001	 19.40	
  5.109	-142.013	 42.63599	 11.91317	 24.61890	 14.58771	 21.25356	  0.31825	 42.96980	712.40002	 19.40	
  5.099	-161.165	 42.59393	 10.98371	 25.67277	 16.55013	 18.94984	  0.30256	 42.94806	712.35999	 19.50	
  5.100	180.000	 42.57328	 10.73543	 25.90010	 18.68520	 16.64191	  0.29371	 42.94248	712.45001	 19.50	
  6.800	180.000	 42.12976	  8.24630	 27.89478	 18.38307	 16.08734	 -0.00866	 42.94837	712.46997	 19.50	
  6.796	-166.229	 42.13973	  8.38775	 27.76388	 16.27257	 18.36403	 -0.00776	 42.94679	712.40002	 19.50	
  6.808	-152.311	 42.15300	  9.03005	 27.01941	 14.23669	 20.65678	 -0.00161	 42.93074	712.54999	 19.50	
  6.795	-138.383	 42.19746	 10.16507	 25.74552	 12.50882	 22.75609	  0.02964	 42.94662	712.42999	 19.50	
  6.792	-124.591	 42.25021	 11.68984	 24.07332	 11.16350	 24.38391	  0.05694	 42.95517	712.41998	 19.60	
  6.787	-110.754	 42.28659	 13.54240	 21.96469	 10.17443	 25.70301	  0.04807	 42.95062	712.40997	 19.60	
  6.800	-96.985	 42.32675	 15.63102	 20.30858	  9.61267	 26.47703	  0.10099	 42.94614	712.54999	 19.60	
  6.800	-83.015	 42.38828	 17.81695	 17.91591	  9.56167	 26.62328	  0.13920	 42.96434	712.46997	 19.60	
  6.787	-69.246	 42.44654	 19.88358	 15.80921	  9.98214	 26.13836	  0.17359	 42.96799	712.40002	 19.60	
  6.792	-55.409	 42.47511	 22.09440	 13.89037	 10.84646	 25.08542	  0.23033	 42.96092	712.47998	 19.60	
  6.795	-41.617	 42.49963	 23.91473	 12.31991	 12.10425	 23.64732	  0.27696	 42.96523	712.47998	 19.70	
  6.808	-27.689	 42.50693	 25.37916	 11.06031	 13.75051	 21.72386	  0.34033	 42.96342	712.40997	 19.70	
  6.796	-13.771	 42.52684	 26.28273	 10.25310	 15.69661	 19.42220	  0.41858	 42.96362	712.47998	 19.70	
  6.800	  0.000	 42.53399	 26.66692	  9.88312	 17.78501	 17.17791	  0.46391	 42.98143	712.51001	 19.70	
  6.796	 13.771	 42.52570	 26.43670	 10.01565	 19.89465	 14.95071	  0.49506	 42.97558	712.10999	 19.70	
  6.808	 27.689	 42.47757	 25.67291	 10.57878	 22.05183	 12.77389	  0.52498	 42.97543	712.58002	 19.70	
  6.795	 41.617	 42.43409	 24.34910	 11.62165	 23.79364	 10.86414	  0.49339	 42.95448	712.53003	 19.80	
  6.792	 55.409	 42.41471	 22.61861	 13.04236	 25.49889	  9.36365	  0.44198	 42.99010	712.50000	 19.80	
  6.787	 69.246	 42.38104	 20.49405	 14.84606	 26.74689	  8.31224	  0.40300	 42.99108	712.54999	 19.80	
  6.800	 83.015	 42.32647	 18.39921	 16.85854	 27.43691	  7.71862	  0.33386	 42.98116	712.50000	 19.80	
  6.800	 96.985	 42.30334	 16.20863	 19.30677	 27.52157	  7.62632	  0.25457	 42.99170	712.46002	 19.80	
  6.787	110.754	 42.26816	 14.07733	 21.44863	 26.98275	  8.00873	  0.17189	 42.99038	712.45001	 19.80	
  6.792	124.591	 42.23423	 12.14623	 23.14332	 25.91772	  8.84977	  0.10625	 42.99797	712.54999	 19.90	
  6.795	138.383	 42.19622	 10.55532	 24.99626	 24.33815	 10.09751	 -0.02996	 42.98517	712.59998	 19.90	
  6.808	152.311	 42.19034	  9.30964	 26.51067	 22.43971	 11.82998	 -0.02959	 43.00055	712.52002	 19.90	
  6.796	166.229	 42.18240	  8.55565	 27.48800	 20.51283	 13.89201	 -0.04608	 42.99259	712.57001	 19.90	
  8.491	168.704	 41.57183	  5.92856	 29.38246	 20.07068	 13.19455	 -0.53972	 42.98843	712.46002	 19.90	
  8.502	157.493	 41.56321	  6.49107	 28.59905	 22.45041	 11.04611	 -0.38966	 42.99260	712.44000	 20.00	
  8.494	146.194	 41.58838	  7.53491	 27.32564	 24.57054	  9.20379	 -0.46252	 42.98562	712.50000	 20.00	
  8.495	135.039	 41.63564	  8.92973	 25.71059	 26.07236	  7.72148	 -0.27544	 42.99710	712.42999	 20.00	
  8.487	123.723	 41.66764	 10.62627	 23.70220	 27.62779	  6.51989	 -0.37463	 43.00541	712.47998	 20.00	
  8.492	112.575	 41.71188	 12.53023	 21.99227	 28.71060	  5.69599	 -0.27106	 43.02370	712.40997	 20.00	
  8.510	101.220	 41.74076	 14.66859	 19.78022	 29.34202	  5.20211	 -0.24767	 43.02335	712.46997	 20.10	
  8.500	 90.000	 41.78025	 16.88307	 17.30810	 29.50168	  5.13905	 -0.03748	 43.00586	712.48999	 20.10	
  8.510	 78.780	 41.80293	 19.04432	 15.15766	 29.16493	  5.41462	 -0.00717	 43.00521	712.53003	 20.10	
  8.492	 67.425	 41.86055	 21.27985	 13.12467	 28.36587	  6.08712	  0.08709	 43.00515	712.56000	 20.10	
  8.487	 56.277	 41.90457	 23.39657	 11.35255	 27.13050	  7.11646	  0.14115	 42.98940	712.41998	 20.10	
  8.495	 44.961	 41.95494	 25.25327	  9.89043	 25.40301	  8.55267	  0.20235	 42.99412	712.27002	 20.20	
  8.494	 33.806	 42.00711	 26.72765	  8.77990	 23.47558	 10.25056	  0.24120	 42.99386	712.44000	 20.20	
  8.502	 22.507	 42.06817	 27.85650	  7.94915	 21.69086	 12.28076	  0.23020	 43.01936	712.46002	 20.20	
  8.491	 11.296	 42.06908	 28.53189	  7.51100	 19.37917	 14.46976	  0.19907	 42.99050	712.40997	 20.20	
  8.500	  0.000	 42.07838	 28.71071	  7.41268	 17.23063	 16.75817	  0.15679	 42.98796	712.44000	 20.20	
  8.491	-11.296	 42.08546	 28.37020	  7.75369	 15.07971	 19.09900	  0.10376	 42.99344	712.53998	 20.20	
  8.502	-22.507	 42.08309	 27.55566	  8.44257	 13.06997	 21.47024	  0.02442	 42.99685	712.53998	 20.30	
  8.494	-33.806	 42.08894	 26.28567	  9.49221	 11.30346	 23.56921	 -0.06383	 43.01335	712.40997	 20.30	
  8.495	-44.961	 42.05920	 24.70473	 10.82060	  9.80136	 25.34406	 -0.11441	 43.01530	712.40997	 20.30	
  8.487	-56.277	 42.02968	 22.75152	 12.45738	  8.57051	 26.86171	 -0.18256	 43.00554	712.46002	 20.30	
  8.492	-67.425	 41.98696	 20.53024	 14.31843	  7.69847	 27.95521	 -0.21237	 43.01883	712.45001	 20.30	
  8.510	-78.780	 41.91192	 18.32118	 16.43116	  7.16456	 28.58186	 -0.25750	 42.99352	712.44000	 20.40	
  8.500	-90.000	 41.87254	 16.16675	 18.69514	  7.03937	 28.72782	 -0.25667	 43.00254	712.52002	 20.40	
  8.510	-101.220	 41.82542	 13.99380	 21.01330	  7.28331	 28.30921	 -0.36421	 43.00649	712.44000	 20.40	
  8.492	-112.575	 41.78944	 11.89578	 22.82635	  7.95617	 27.39155	 -0.32854	 43.01643	712.50000	 20.40	
  8.487	-123.723	 41.74755	 10.06338	 24.90660	  8.95615	 26.00568	 -0.38490	 43.01913	712.51001	 20.40	
  8.495	-135.039	 41.69237	  8.45973	 26.67956	 10.29127	 24.28169	 -0.31580	 42.99972	712.52002	 20.40	
  8.494	-146.194	 41.65341	  7.19210	 28.06949	 11.90210	 22.35103	 -0.46695	 42.99709	712.41998	 20.50	
  8.502	-157.493	 41.62263	  6.24423	 29.15596	 13.76691	 20.09488	 -0.38802	 43.01282	712.44000	 20.50	
  8.491	-168.704	 41.59101	  5.77009	 29.69252	 15.83272	 17.77807	 -0.37831	 42.99880	712.44000	 20.50	
  8.500	180.000	 41.58218	  5.63308	 29.80964	 17.98984	 15.44833	 -0.48074	 43.00504	712.50000	 20.50	
 10.200	180.000	 40.82394	  2.96782	 31.54480	 17.47155	 14.65053	 -0.93944	 43.01414	712.54999	 20.50	
 10.191	-170.497	 40.83043	  3.04978	 31.46408	 15.28890	 17.01466	 -0.93251	 43.01439	712.50000	 20.60	
 10.210	-161.034	 40.84821	  3.46960	 31.06079	 13.15475	 19.42130	 -0.93256	 43.01355	712.34003	 20.60	
 10.194	-151.526	 40.86800	  4.22680	 30.18412	 11.20984	 21.69614	 -0.88151	 42.97864	712.40997	 20.60	
 10.190	-142.105	 40.93250	  5.25581	 29.02105	  9.46207	 23.80151	 -0.83019	 43.00135	712.44000	 20.60	
 10.215	-132.646	 40.96000	  6.60268	 27.48842	  7.85538	 25.80564	 -0.70013	 43.01104	712.42999	 20.60	
 10.203	-123.092	 41.01232	  8.25977	 25.60478	  6.56546	 27.56408	 -0.80319	 43.01771	712.40997	 20.60	
 10.192	-113.678	 41.06736	 10.11225	 23.50491	  5.59371	 28.91177	 -0.85308	 43.01647	712.40002	 20.70	
 10.208	-104.249	 41.11168	 12.17039	 21.66376	  4.86350	 29.88736	 -0.82045	 43.00422	712.45001	 20.70	
 10.210	-94.801	 41.18176	 14.36006	 19.37501	  4.46191	 30.47246	 -0.66909	 43.01347	712.48999	 20.70	
 10.210	-85.199	 41.21385	 16.64355	 16.97701	  4.41619	 30.59323	 -0.68907	 42.99275	712.42999	 20.70	
 10.208	-75.751	 41.28210	 18.84693	 14.79577	  4.69034	 30.30640	 -0.76911	 42.99543	712.40002	 20.70	
 10.192	-66.322	 41.34493	 21.03822	 12.72521	  5.31993	 29.63345	 -0.78845	 43.00254	712.44000	 20.70	
 10.203	-56.908	 41.35578	 23.27995	 10.82783	  6.11862	 28.54676	 -0.73112	 42.99448	712.40002	 20.70	
 10.215	-47.354	 41.42104	 25.33255	  9.20183	  7.31621	 27.07164	 -0.68609	 43.01814	712.46002	 20.80	
 10.190	-37.895	 41.43798	 27.07498	  7.79869	  8.76685	 25.22275	 -0.65553	 43.00297	712.40002	 20.80	
 10.194	-28.474	 41.46320	 28.52035	  6.65594	 10.41287	 23.27046	 -0.60915	 43.02720	712.40002	 20.80	
 10.210	-18.966	 41.45928	 29.62272	  5.78039	 12.27112	 21.07608	 -0.49323	 42.99692	712.46997	 20.80	
 10.191	 -9.503	 41.48628	 30.23799	  5.25878	 14.37528	 18.66228	 -0.43924	 43.01554	712.42999	 20.80	
 10.200	  0.000	 41.46065	 30.52650	  4.95817	 16.53286	 16.26964	 -0.38441	 42.98759	712.48999	 20.80	
 10.191	  9.503	 41.46341	 30.40723	  4.97642	 18.75972	 13.88963	 -0.31300	 43.00665	712.58002	 20.90	
 10.210	 18.966	 41.40491	 29.92256	  5.26953	 20.97205	 11.61353	 -0.29859	 42.99380	712.47998	 20.90	
 10.194	 28.474	 41.37471	 28.92947	  5.91631	 23.28041	  9.57067	 -0.13110	 42.99266	712.46997	 20.90	
 10.190	 37.895	 41.34349	 27.64145	  6.86953	 25.30926	  7.80784	 -0.21601	 43.00582	712.51001	 20.90	
 10.215	 47.354	 41.25602	 26.01005	  8.05953	 26.99800	  6.17991	 -0.36808	 42.98659	712.47998	 20.90	
 10.203	 56.908	 41.22628	 24.06935	  9.55767	 28.63034	  4.82986	 -0.57210	 43.00447	712.47998	 20.90	
 10.192	 66.322	 41.15825	 21.89588	 11.30127	 29.84692	  3.83443	 -0.61471	 42.99340	712.45001	 20.90	
 10.208	 75.751	 41.11182	 19.54934	 13.26381	 30.74993	  3.12896	 -0.62303	 43.00860	712.47998	 21.00	
 10.210	 85.199	 41.05500	 17.48628	 15.39962	 31.24218	  2.70137	 -0.67308	 42.99771	712.46997	 21.00	
 10.210	 94.801	 41.00930	 15.16394	 17.63853	 31.31000	  2.60937	 -0.73802	 42.98351	712.44000	 21.00	
 10.208	104.249	 40.97233	 12.92941	 20.15872	 30.99520	  2.80263	 -0.84391	 43.00769	712.42999	 21.00	
 10.192	113.678	 40.94070	 10.84709	 22.33805	 30.24626	  3.34905	 -0.87787	 43.00428	712.53003	 21.00	
 10.203	123.092	 40.91220	  8.92856	 24.13146	 29.19825	  4.14586	 -0.86395	 43.00465	712.58002	 21.00	
 10.215	132.646	 40.83766	  7.17346	 26.20196	 27.68564	  5.24892	 -0.85995	 42.96781	712.52002	 21.10	
 10.190	142.105	 40.84998	  5.73198	 27.98965	 25.84405	  6.68345	 -0.92820	 43.00085	712.60999	 21.10	
 10.194	151.526	 40.80886	  4.54957	 29.40726	 23.75740	  8.30183	 -1.00020	 42.99511	712.53998	 21.10	
 10.210	161.034	 40.81770	  3.75727	 30.49185	 21.94515	 10.20291	 -1.01005	 43.00576	712.50000	 21.10	
 10.191	170.497	 40.80122	  3.24390	 31.17705	 19.60464	 12.33600	 -0.96519	 42.98304	712.53003	 21.10	
 11.899	171.783	 39.90456	  0.56375	 33.03443	 19.04246	 11.47669	 -1.32818	 42.99029	712.58002	 21.10	
 11.890	163.610	 39.91709	  0.99621	 32.25375	 21.25704	  9.37187	 -1.38196	 43.00097	712.57001	 21.20	
 11.889	155.445	 39.92299	  1.64543	 31.24935	 23.58243	  7.47024	 -1.43306	 42.98954	712.63000	 21.20	
 11.909	147.299	 39.91458	  2.52474	 29.96981	 25.64988	  5.73941	 -1.41134	 42.96989	712.53998	 21.20	
 11.902	139.148	 39.93155	  3.87070	 28.44237	 27.38684	  4.14847	 -1.34112	 42.99401	712.58002	 21.20	
 11.894	130.867	 39.96955	  5.42740	 26.55574	 29.14067	  2.85360	 -1.30414	 42.99166	712.65997	 21.20	
 11.897	122.732	 40.01466	  7.16009	 24.44445	 30.54234	  1.81351	 -1.29527	 42.99211	712.53003	 21.20	
 11.903	114.597	 40.03065	  9.07340	 22.62076	 31.63412	  1.05394	 -1.32975	 42.97730	712.45001	 21.20	
 11.893	106.346	 40.05009	 11.19287	 20.40127	 32.40403	  0.52374	 -1.29759	 42.96085	712.58002	 21.30	
 11.892	 98.155	 40.10827	 13.42411	 17.88634	 33.05312	  0.20391	 -1.21528	 42.97196	712.52002	 21.30	
 11.900	 90.000	 40.15607	 15.67574	 15.65125	 33.19099	  0.11118	 -1.12888	 42.98685	712.56000	 21.30	
 11.892	 81.845	 40.19605	 17.95763	 13.45948	 32.82918	  0.35769	 -1.07340	 42.97998	712.46997	 21.30	
 11.893	 73.654	 40.24056	 20.00868	 11.35668	 32.07148	  0.90365	 -1.05669	 42.96697	712.46002	 21.30	
 11.903	 65.403	 40.30637	 22.43671	  9.44226	 31.16716	  1.59830	 -1.06983	 42.97430	712.39001	 21.30	
 11.897	 57.268	 40.34796	 24.60606	  7.72096	 29.92999	  2.57117	 -1.02357	 42.96847	712.56000	 21.30	
 11.894	 49.133	 40.39389	 26.56642	  6.22455	 28.39491	  3.81107	 -0.89134	 42.95913	712.57001	 21.40	
 11.902	 40.852	 40.47131	 28.34778	  4.92027	 26.47112	  5.30828	 -0.79131	 42.98634	712.54999	 21.40	
 11.909	 32.701	 40.53251	 29.79707	  3.89934	 24.30704	  7.02023	 -0.77648	 42.97651	712.45001	 21.40	
 11.889	 24.555	 40.58503	 30.88413	  3.21442	 22.48297	  8.92012	 -0.78855	 42.96985	712.46002	 21.40	
 11.890	 16.390	 40.64108	 31.81296	  2.73147	 20.19417	 10.97494	 -0.82144	 42.98926	712.53998	 21.40	
 11.899	  8.217	 40.64507	 32.33513	  2.44182	 17.97550	 13.24386	 -0.79983	 42.95605	712.47998	 21.40	
 11.900	  0.000	 40.64362	 32.43305	  2.42740	 15.71789	 15.65075	 -0.80285	 42.95805	712.53003	 21.40	
 11.899	 -8.217	 40.66856	 32.16959	  2.70973	 13.52994	 18.06746	 -0.83578	 42.97989	712.50000	 21.50	
 11.890	-16.390	 40.65161	 31.38536	  3.23446	 11.41654	 20.48817	 -0.92478	 42.97194	712.46002	 21.50	
 11.889	-24.555	 40.64705	 30.40097	  3.96780	  9.51560	 22.75866	 -1.01299	 42.96897	712.39001	 21.50	
 11.909	-32.701	 40.61000	 29.20220	  4.85059	  7.70327	 24.83492	 -1.07219	 42.96230	712.40997	 21.50	
 11.902	-40.852	 40.59719	 27.64588	  6.04071	  5.92321	 26.83104	 -1.07251	 42.99033	712.39001	 21.50	
 11.894	-49.133	 40.58210	 25.78543	  7.51398	  4.45641	 28.61117	 -1.09943	 42.99239	712.51001	 21.50	
 11.897	-57.268	 40.52903	 23.69404	  9.12962	  3.37231	 30.00974	 -1.12886	 42.96395	712.40997	 21.50	
 11.903	-65.403	 40.49723	 21.42740	 10.98721	  2.58978	 31.08809	 -1.16922	 42.96884	712.48999	 21.60	
 11.893	-73.654	 40.45402	 19.20433	 13.06600	  2.03805	 31.83693	 -1.17622	 42.97577	712.52002	 21.60	
 11.892	-81.845	 40.37426	 16.98363	 15.24664	  1.62478	 32.23264	 -1.12816	 42.94559	712.45001	 21.60	
 11.900	-90.000	 40.31910	 14.69453	 17.46318	  1.52470	 32.27753	 -1.09298	 42.96017	712.40002	 21.60	
 11.892	-98.155	 40.26435	 12.45297	 19.86011	  1.69362	 31.94801	 -1.11231	 42.96734	712.50000	 21.60	
 11.893	-106.346	 40.19148	 10.27595	 22.13475	  2.18772	 31.24771	 -1.13776	 42.95819	712.40997	 21.60	
 11.903	-114.597	 40.14348	  8.23351	 24.00305	  2.92143	 30.21051	 -1.17764	 42.95721	712.53998	 21.60	
 11.897	-122.732	 40.09552	  6.36754	 26.15019	  3.85535	 28.85220	 -1.16792	 42.94996	712.48999	 21.70	
 11.894	-130.867	 40.04408	  4.69631	 28.06133	  5.03297	 27.18092	 -1.12217	 42.96089	712.42999	 21.70	
 11.902	-139.148	 39.98076	  3.32183	 29.67347	  6.71545	 25.17435	 -1.13035	 42.95110	712.46002	 21.70	
 11.909	-147.299	 39.96940	  2.11530	 31.01553	  8.60873	 23.13196	 -1.20453	 42.95812	712.37000	 21.70	
 11.889	-155.445	 39.93907	  1.31910	 32.01927	 10.48833	 20.89916	 -1.25060	 42.94598	712.44000	 21.70	
 11.890	-163.610	 39.89858	  0.69737	 32.89243	 12.47873	 18.56720	 -1.28704	 42.95420	712.51001	 21.70	
 11.899	-171.783	 39.86877	  0.32404	 33.35635	 14.63325	 16.14308	 -1.31402	 42.95210	712.58002	 21.70	
 11.900	180.000	 39.85456	  0.27866	 33.42382	 16.83325	 13.74660	 -1.30623	 42.94468	712.47998	 21.80	
 13.600	180.000	 38.79199	 -2.17113	 35.11699	 16.08805	 12.74028	 -1.57468	 42.95900	712.42999	 21.80	
 13.608	-172.853	 38.77795	 -2.17973	 35.03160	 13.88936	 15.10623	 -1.55697	 42.94775	712.40997	 21.80	
 13.611	-165.583	 38.79450	 -1.92815	 34.71288	 11.68249	 17.53059	 -1.53724	 42.94323	712.41998	 21.80	
 13.601	-158.353	 38.85166	 -1.40002	 34.01183	  9.63182	 19.94901	 -1.49778	 42.95712	712.40002	 21.80	
 13.609	-151.210	 38.88009	 -0.72792	 32.96189	  7.47540	 22.22547	 -1.43022	 42.93198	712.59998	 21.80	
 13.611	-143.999	 38.92601	  0.21143	 31.63547	  5.46204	 24.41675	 -1.35372	 42.92731	712.46002	 21.80	
 13.601	-136.825	 38.98465	  1.31146	 30.18113	  3.90883	 26.48463	 -1.29554	 42.94664	712.47998	 21.90	
 13.596	-129.640	 39.01728	  2.64370	 28.50538	  2.63798	 28.36564	 -1.29425	 42.92118	712.50000	 21.90	
