FileType=PCF
NHL=14
Date=08/29/17	11:39:55
Facility=APL
Serial=16328-14
Customer=NASA
NP=6
Mach=0.150000
Calibration=1:1
CalPts=490
TstPts=95
PortNumbering=AP Standard
Units=Torr C m/s kg/m^3 deg mm 
Theta[deg]	Phi[deg]	P1[Torr]	P2[Torr]	P3[Torr]	P4[Torr]	P5[Torr]	P6[Torr]	Pt[Torr]	Ps[Abs,Torr]	Ts[C]	
  0.000	  0.000	 11.19186	  5.84515	  5.85890	  5.72229	  5.93386	  0.08838	 11.18054	706.34399	 24.30	
  1.691	128.401	 11.19658	  5.49839	  6.19153	  6.16169	  5.48481	  0.08862	 11.18442	706.33002	 24.30	
  1.692	 77.194	 11.19623	  5.97756	  5.71242	  6.27369	  5.37969	  0.08377	 11.18358	706.25098	 24.30	
  1.699	 26.182	 11.19996	  6.35503	  5.34301	  5.96876	  5.67789	  0.07671	 11.18854	706.05402	 24.30	
  1.699	-26.182	 11.19177	  6.34101	  5.34676	  5.45864	  6.17248	  0.07881	 11.17834	706.21802	 24.30	
  1.692	-77.194	 11.19175	  5.95068	  5.72957	  5.16573	  6.46691	  0.07925	 11.18148	706.16400	 24.20	
  1.691	-128.401	 11.19158	  5.47670	  6.20270	  5.26871	  6.35783	  0.08085	 11.17554	706.28400	 24.20	
  1.700	180.000	 11.19236	  5.27457	  6.40944	  5.70909	  5.91940	  0.08228	 11.18030	706.26001	 24.20	
  3.400	180.000	 11.17725	  4.68893	  6.92921	  5.65844	  5.87422	  0.04757	 11.18041	706.29102	 24.20	
  3.388	-152.325	 11.17763	  4.79971	  6.81550	  5.15354	  6.38029	  0.04497	 11.18708	706.29303	 24.20	
  3.397	-124.529	 11.16643	  5.13019	  6.45357	  4.75188	  6.79695	  0.05107	 11.17990	706.31500	 24.20	
  3.399	-96.763	 11.15441	  5.62257	  5.93004	  4.56742	  6.97770	  0.03435	 11.16932	706.13202	 24.20	
  3.394	-69.283	 11.15260	  6.16272	  5.40835	  4.63024	  6.92441	  0.04350	 11.16710	706.16302	 24.20	
  3.400	-41.398	 11.18235	  6.65179	  4.98154	  4.93672	  6.62592	  0.05087	 11.19839	706.16602	 24.20	
  3.401	-14.021	 11.16785	  6.91170	  4.73317	  5.38366	  6.14523	  0.04907	 11.17642	706.19397	 24.20	
  3.401	 14.021	 11.16679	  6.91815	  4.72900	  5.93519	  5.60007	  0.04378	 11.17081	706.16998	 24.20	
  3.400	 41.398	 11.18685	  6.68005	  4.96364	  6.43307	  5.14998	  0.04492	 11.18456	706.35999	 24.20	
  3.394	 69.283	 11.18620	  6.23036	  5.38688	  6.75229	  4.86366	  0.05555	 11.18588	706.20001	 24.20	
  3.399	 96.763	 11.19938	  5.69781	  5.91683	  6.83588	  4.79685	  0.06667	 11.19838	706.10199	 24.20	
  3.397	124.529	 11.16689	  5.17684	  6.41101	  6.61941	  4.95524	  0.06591	 11.15870	706.21198	 24.20	
  3.388	152.325	 11.17851	  4.82498	  6.79731	  6.19978	  5.35534	  0.06340	 11.17650	706.33197	 24.20	
  5.099	161.165	 11.14234	  4.16050	  7.37321	  6.17217	  5.21563	  0.02275	 11.19103	706.23102	 24.20	
  5.109	142.013	 11.13290	  4.41406	  7.07572	  6.68048	  4.74452	  0.03543	 11.17778	706.33600	 24.20	
  5.095	123.033	 11.12855	  4.82522	  6.62601	  7.07295	  4.39792	  0.03967	 11.16836	706.24902	 24.20	
  5.105	104.191	 11.15086	  5.34129	  6.11068	  7.33419	  4.19891	  0.02559	 11.19256	706.19800	 24.20	
  5.093	 85.207	 11.12171	  5.88953	  5.53407	  7.34789	  4.15752	  0.01303	 11.16442	706.16400	 24.20	
  5.104	 66.290	 11.11539	  6.43896	  5.00513	  7.20522	  4.28083	 -0.00742	 11.16070	706.22198	 24.20	
  5.094	 47.331	 11.14015	  6.94471	  4.56839	  6.88098	  4.59136	 -0.02362	 11.18679	706.14697	 24.20	
  5.089	 28.397	 11.14696	  7.29954	  4.25733	  6.42889	  5.01313	 -0.02634	 11.20057	706.08801	 24.20	
  5.096	  9.576	 11.11504	  7.47397	  4.08101	  5.87227	  5.51146	 -0.00283	 11.17482	706.32898	 24.20	
  5.096	 -9.576	 11.09859	  7.44093	  4.08065	  5.28233	  6.07605	 -0.01341	 11.16664	706.18298	 24.20	
  5.089	-28.397	 11.12537	  7.26398	  4.27211	  4.78940	  6.61830	 -0.00388	 11.19695	706.28497	 24.20	
  5.094	-47.331	 11.08808	  6.86279	  4.58460	  4.33458	  7.06450	  0.00410	 11.16622	706.14697	 24.20	
  5.104	-66.290	 11.07641	  6.36198	  5.02916	  4.03187	  7.38358	 -0.00229	 11.15729	706.18597	 24.20	
  5.093	-85.207	 11.10798	  5.81978	  5.57546	  3.91154	  7.54991	 -0.00094	 11.19278	706.24500	 24.20	
  5.105	-104.191	 11.10306	  5.24050	  6.14565	  3.95004	  7.49347	 -0.01504	 11.18537	706.33899	 24.20	
  5.095	-123.033	 11.09810	  4.74169	  6.66871	  4.16654	  7.24048	 -0.02160	 11.17211	706.34601	 24.20	
  5.109	-142.013	 11.09885	  4.35562	  7.09480	  4.53007	  6.83405	 -0.01887	 11.16409	706.24298	 24.20	
  5.099	-161.165	 11.11266	  4.11947	  7.38114	  5.02409	  6.31913	 -0.01152	 11.16999	706.14697	 24.20	
  5.100	180.000	 11.12366	  4.05764	  7.46838	  5.57466	  5.77303	  0.00753	 11.17860	706.37701	 24.20	
  6.800	180.000	 11.03287	  3.38677	  7.99105	  5.47464	  5.65516	 -0.05718	 11.17887	706.37201	 24.20	
  6.796	-166.229	 11.01876	  3.43021	  7.92266	  4.92210	  6.20149	 -0.06777	 11.17256	706.23901	 24.20	
  6.808	-152.311	 11.00661	  3.59221	  7.71883	  4.40795	  6.73572	 -0.07895	 11.16914	706.30402	 24.20	
  6.795	-138.383	 11.01043	  3.88104	  7.39050	  3.96404	  7.22835	 -0.08326	 11.18446	706.16699	 24.20	
  6.792	-124.591	 10.99466	  4.26282	  6.94949	  3.60880	  7.61436	 -0.08748	 11.17464	706.20801	 24.20	
  6.787	-110.754	 10.99704	  4.73326	  6.44539	  3.37240	  7.89411	 -0.08835	 11.18028	706.12500	 24.20	
  6.800	-96.985	 10.98650	  5.25133	  5.89711	  3.24439	  8.03602	 -0.07789	 11.17517	706.28998	 24.20	
  6.800	-83.015	 10.99146	  5.82663	  5.33742	  3.24567	  8.04648	 -0.07043	 11.18263	706.30103	 24.20	
  6.787	-69.246	 10.97402	  6.36767	  4.80359	  3.36194	  7.89345	 -0.07430	 11.16777	706.29901	 24.20	
  6.792	-55.409	 10.96814	  6.88186	  4.32526	  3.59032	  7.62179	 -0.07052	 11.15935	706.23102	 24.20	
  6.795	-41.617	 10.96231	  7.32201	  3.92607	  3.93348	  7.23030	 -0.06430	 11.14687	706.23102	 24.20	
  6.808	-27.689	 10.99174	  7.69607	  3.62846	  4.38687	  6.76330	 -0.06864	 11.17676	706.28400	 24.20	
  6.796	-13.771	 10.99843	  7.91342	  3.44509	  4.89671	  6.22690	 -0.08626	 11.16986	706.41101	 24.20	
  6.800	  0.000	 11.00491	  7.99723	  3.37867	  5.44750	  5.67300	 -0.10112	 11.16907	706.38599	 24.20	
  6.796	 13.771	 11.04585	  7.96352	  3.44604	  6.03218	  5.14798	 -0.10337	 11.20491	706.37799	 24.20	
  6.808	 27.689	 11.02687	  7.75188	  3.60487	  6.56174	  4.63240	 -0.11316	 11.18015	706.40302	 24.20	
  6.795	 41.617	 11.03539	  7.42122	  3.90448	  7.04881	  4.20640	 -0.10660	 11.17869	706.29102	 24.10	
  6.792	 55.409	 11.02835	  6.98395	  4.28621	  7.43368	  3.86153	 -0.08948	 11.16251	706.34601	 24.10	
  6.787	 69.246	 11.03185	  6.47654	  4.75574	  7.71547	  3.62847	 -0.07691	 11.16504	706.30701	 24.10	
  6.800	 83.015	 11.05795	  5.94364	  5.28715	  7.88458	  3.50756	 -0.06180	 11.18431	706.34100	 24.10	
  6.800	 96.985	 11.04570	  5.37009	  5.84435	  7.87982	  3.50331	 -0.03610	 11.16893	706.34399	 24.10	
  6.787	110.754	 11.09158	  4.86223	  6.41658	  7.76822	  3.63838	 -0.01937	 11.21676	706.37000	 24.10	
  6.792	124.591	 11.06961	  4.37243	  6.91912	  7.47710	  3.86096	 -0.01693	 11.19406	706.35303	 24.10	
  6.795	138.383	 11.07654	  3.97542	  7.36628	  7.08957	  4.20010	 -0.01370	 11.20742	706.29602	 24.10	
  6.808	152.311	 11.05847	  3.65695	  7.70745	  6.60040	  4.61561	 -0.01717	 11.19150	706.29102	 24.10	
  6.796	166.229	 11.03572	  3.46368	  7.90873	  6.04752	  5.10691	 -0.03984	 11.17409	706.16302	 24.10	
  8.491	168.704	 10.90766	  2.77326	  8.40967	  5.93269	  4.95262	 -0.11961	 11.17941	706.22803	 24.10	
  8.502	157.493	 10.91932	  2.92838	  8.23587	  6.49949	  4.43471	 -0.08673	 11.18718	706.27399	 24.10	
  8.494	146.194	 10.93480	  3.18946	  7.94934	  7.03330	  3.97535	 -0.07323	 11.19524	706.18298	 24.10	
  8.495	135.039	 10.95373	  3.53284	  7.57272	  7.51452	  3.57465	 -0.08987	 11.20938	706.10400	 24.10	
  8.487	123.723	 10.94991	  3.95781	  7.09386	  7.90024	  3.24423	 -0.09905	 11.20097	706.18103	 24.10	
  8.492	112.575	 10.94454	  4.43634	  6.56796	  8.17717	  3.00887	 -0.10201	 11.19540	706.20300	 24.10	
  8.510	101.220	 10.94440	  4.97354	  6.00206	  8.35689	  2.85942	 -0.11620	 11.19955	706.22803	 24.10	
  8.500	 90.000	 10.93458	  5.53556	  5.42498	  8.40040	  2.81538	 -0.13941	 11.18943	706.28998	 24.10	
  8.510	 78.780	 10.90635	  6.09775	  4.84806	  8.32115	  2.85035	 -0.16042	 11.16740	706.29303	 24.10	
  8.492	 67.425	 10.92065	  6.67063	  4.32254	  8.14437	  3.00586	 -0.17015	 11.18038	706.20599	 24.10	
  8.487	 56.277	 10.90200	  7.17490	  3.84679	  7.84577	  3.23820	 -0.17952	 11.16838	706.32501	 24.10	
  8.495	 44.961	 10.90846	  7.64686	  3.43321	  7.46205	  3.56859	 -0.20616	 11.18545	706.16699	 24.10	
  8.494	 33.806	 10.91927	  8.02804	  3.11526	  7.00035	  3.98727	 -0.22229	 11.20710	706.11102	 24.10	
  8.502	 22.507	 10.88141	  8.28489	  2.86308	  6.45033	  4.45007	 -0.21977	 11.17530	706.11298	 24.10	
  8.491	 11.296	 10.88250	  8.44895	  2.72879	  5.89192	  4.97771	 -0.20785	 11.18159	706.07898	 24.10	
  8.500	  0.000	 10.85524	  8.48145	  2.67610	  5.29369	  5.53321	 -0.19816	 11.16150	706.08698	 24.10	
  8.491	-11.296	 10.86988	  8.42589	  2.73898	  4.73378	  6.11662	 -0.18471	 11.18809	706.18103	 24.10	
  8.502	-22.507	 10.85571	  8.23543	  2.88832	  4.19864	  6.66589	 -0.15885	 11.17653	706.21100	 24.00	
  8.494	-33.806	 10.86583	  7.94357	  3.14736	  3.71261	  7.20727	 -0.14275	 11.19709	706.13300	 24.00	
  8.495	-44.961	 10.83864	  7.53509	  3.48071	  3.29097	  7.65520	 -0.14244	 11.17877	706.20398	 24.00	
  8.487	-56.277	 10.84184	  7.05659	  3.91072	  2.96672	  8.03378	 -0.15544	 11.18204	706.13599	 24.00	
  8.492	-67.425	 10.83104	  6.52777	  4.38341	  2.72435	  8.30919	 -0.15941	 11.17915	706.19702	 24.00	
  8.510	-78.780	 10.81779	  5.94995	  4.90974	  2.56519	  8.48041	 -0.15884	 11.16145	706.16699	 24.00	
  8.500	-90.000	 10.84470	  5.38159	  5.48608	  2.53154	  8.54883	 -0.15690	 11.18842	706.12799	 24.00	
  8.510	-101.220	 10.83199	  4.81167	  6.04870	  2.57536	  8.47945	 -0.16631	 11.17403	706.08801	 24.00	
  8.492	-112.575	 10.87088	  4.29630	  6.62961	  2.74886	  8.31564	 -0.17108	 11.20765	706.12402	 24.00	
  8.487	-123.723	 10.85052	  3.81856	  7.12829	  2.99069	  8.00641	 -0.15962	 11.17749	706.20801	 24.00	
  8.495	-135.039	 10.84331	  3.40961	  7.58419	  3.31693	  7.61746	 -0.15434	 11.16566	706.04498	 24.00	
  8.494	-146.194	 10.88574	  3.11002	  7.98222	  3.75081	  7.17551	 -0.14987	 11.19972	706.13898	 24.00	
  8.502	-157.493	 10.87599	  2.87187	  8.25249	  4.23822	  6.63025	 -0.14580	 11.17513	706.24597	 24.00	
  8.491	-168.704	 10.87952	  2.74333	  8.41626	  4.77269	  6.07393	 -0.13992	 11.17156	706.06299	 24.00	
  8.500	180.000	 10.90726	  2.71113	  8.48560	  5.34760	  5.52081	 -0.13503	 11.19224	706.10400	 24.00	
 10.200	180.000	 10.70602	  2.00375	  8.92462	  5.17688	  5.33609	 -0.21680	 11.17183	706.10999	 24.00	
 10.191	-170.497	 10.71653	  2.03180	  8.89645	  4.60976	  5.91947	 -0.21994	 11.19457	706.12701	 24.00	
 10.210	-161.034	 10.68092	  2.13281	  8.73419	  4.04598	  6.47191	 -0.22581	 11.16718	706.09302	 24.00	
 10.194	-151.526	 10.67286	  2.33236	  8.48446	  3.52839	  7.02849	 -0.22123	 11.16478	706.23499	 24.00	
 10.190	-142.105	 10.69336	  2.60796	  8.17544	  3.07827	  7.55579	 -0.22101	 11.19972	706.28003	 24.00	
 10.215	-132.646	 10.66788	  2.93921	  7.75828	  2.67429	  7.99438	 -0.22254	 11.18470	706.14697	 24.00	
 10.203	-123.092	 10.65533	  3.35283	  7.27218	  2.34305	  8.37275	 -0.23701	 11.17956	706.23102	 24.00	
 10.192	-113.678	 10.64427	  3.82513	  6.73906	  2.08849	  8.66363	 -0.25149	 11.17709	706.22900	 24.00	
 10.208	-104.249	 10.62733	  4.33547	  6.17449	  1.90652	  8.86709	 -0.25715	 11.16743	706.28198	 24.00	
 10.210	-94.801	 10.63933	  4.89988	  5.60989	  1.81870	  8.98668	 -0.25222	 11.18464	706.26801	 24.00	
 10.210	-85.199	 10.63896	  5.49162	  5.02172	  1.81291	  8.99325	 -0.24383	 11.18433	706.33197	 24.00	
 10.208	-75.751	 10.63151	  6.07173	  4.46218	  1.89652	  8.88927	 -0.24782	 11.17907	706.34900	 24.00	
 10.192	-66.322	 10.65009	  6.65028	  3.94694	  2.07194	  8.70200	 -0.24893	 11.19360	706.29602	 24.00	
 10.203	-56.908	 10.63692	  7.18037	  3.45659	  2.31197	  8.40168	 -0.24338	 11.17284	706.40601	 24.00	
 10.215	-47.354	 10.64881	  7.68553	  3.02572	  2.63976	  8.02990	 -0.23050	 11.18596	706.25403	 24.00	
 10.190	-37.895	 10.65751	  8.10681	  2.67119	  3.03252	  7.58786	 -0.22392	 11.18154	706.30798	 24.00	
 10.194	-28.474	 10.67478	  8.46356	  2.38097	  3.48760	  7.09068	 -0.23313	 11.19409	706.18903	 24.00	
 10.210	-18.966	 10.65502	  8.70766	  2.16010	  3.99771	  6.51905	 -0.25951	 11.16575	706.32501	 24.00	
 10.191	 -9.503	 10.70148	  8.89872	  2.04103	  4.56146	  5.97317	 -0.28017	 11.19866	706.22302	 24.00	
 10.200	  0.000	 10.68374	  8.94438	  1.98778	  5.12549	  5.38230	 -0.30186	 11.17772	706.34601	 24.00	
 10.191	  9.503	 10.68035	  8.90212	  2.01789	  5.71558	  4.80441	 -0.31664	 11.16813	706.36102	 24.00	
 10.210	 18.966	 10.69917	  8.77956	  2.13009	  6.30274	  4.26533	 -0.33685	 11.18279	706.30103	 24.00	
 10.194	 28.474	 10.72100	  8.54620	  2.34482	  6.86573	  3.77357	 -0.34307	 11.19216	706.33197	 24.00	
 10.190	 37.895	 10.71358	  8.21208	  2.61584	  7.37321	  3.31579	 -0.32839	 11.17745	706.27002	 24.00	
 10.215	 47.354	 10.72802	  7.81929	  2.96245	  7.84622	  2.92254	 -0.30484	 11.18665	706.19501	 24.00	
 10.203	 56.908	 10.74143	  7.34316	  3.39262	  8.23163	  2.61141	 -0.27932	 11.19013	706.30499	 24.00	
 10.192	 66.322	 10.72910	  6.80577	  3.86681	  8.50640	  2.37716	 -0.26705	 11.16889	706.26801	 24.00	
 10.208	 75.751	 10.74398	  6.25655	  4.39108	  8.73003	  2.20848	 -0.26280	 11.17753	706.33197	 24.00	
 10.210	 85.199	 10.73694	  5.67392	  4.94342	  8.83262	  2.12244	 -0.25180	 11.16694	706.35199	 24.00	
 10.210	 94.801	 10.74994	  5.08592	  5.53535	  8.84567	  2.12298	 -0.22654	 11.17885	706.19702	 24.00	
 10.208	104.249	 10.76436	  4.52905	  6.12258	  8.75948	  2.20647	 -0.20733	 11.19025	706.28497	 24.00	
 10.192	113.678	 10.74290	  3.99387	  6.67278	  8.53656	  2.37154	 -0.19585	 11.16479	706.35602	 24.00	
 10.203	123.092	 10.77004	  3.51376	  7.22518	  8.27645	  2.60413	 -0.19207	 11.19401	706.30499	 24.00	
 10.215	132.646	 10.73209	  3.06537	  7.69116	  7.87574	  2.89874	 -0.18115	 11.16114	706.33899	 24.00	
 10.190	142.105	 10.73991	  2.71330	  8.11276	  7.42337	  3.29532	 -0.14893	 11.17209	706.14099	 24.00	
 10.194	151.526	 10.72768	  2.41956	  8.44645	  6.90415	  3.73964	 -0.14329	 11.16176	706.34900	 24.00	
 10.210	161.034	 10.74803	  2.20079	  8.73003	  6.36760	  4.24065	 -0.16844	 11.19399	706.20300	 24.00	
 10.191	170.497	 10.73203	  2.06691	  8.87476	  5.78446	  4.77157	 -0.19898	 11.18499	706.25403	 24.00	
 11.899	171.783	 10.51086	  1.36355	  9.30438	  5.60206	  4.56940	 -0.28809	 11.18612	706.22803	 24.00	
 11.890	163.610	 10.50445	  1.47947	  9.15310	  6.17471	  4.02531	 -0.25743	 11.17165	706.28497	 24.00	
 11.889	155.445	 10.50220	  1.66777	  8.92142	  6.73806	  3.51658	 -0.22606	 11.15976	706.35999	 24.00	
 11.909	147.299	 10.50202	  1.91426	  8.61922	  7.27907	  3.03859	 -0.21680	 11.15324	706.45099	 24.00	
 11.902	139.148	 10.52841	  2.24342	  8.25784	  7.78801	  2.63096	 -0.24489	 11.17481	706.29102	 24.00	
 11.894	130.867	 10.53978	  2.63222	  7.81465	  8.23162	  2.27683	 -0.26276	 11.17859	706.33197	 24.00	
 11.897	122.732	 10.53441	  3.06151	  7.31189	  8.59632	  1.97563	 -0.27387	 11.17110	706.27399	 24.00	
 11.903	114.597	 10.51189	  3.53149	  6.76294	  8.87769	  1.72813	 -0.29119	 11.15236	706.33801	 24.00	
 11.893	106.346	 10.53262	  4.07214	  6.20227	  9.11236	  1.56387	 -0.30483	 11.17443	706.33600	 24.00	
 11.892	 98.155	 10.51973	  4.62409	  5.61443	  9.22719	  1.46011	 -0.32444	 11.16055	706.38702	 24.00	
 11.900	 90.000	 10.52025	  5.19897	  5.03314	  9.26915	  1.42548	 -0.34002	 11.16144	706.25299	 24.00	
 11.892	 81.845	 10.52768	  5.79062	  4.46424	  9.22462	  1.46523	 -0.35303	 11.17604	706.33801	 24.00	
 11.893	 73.654	 10.51704	  6.36549	  3.91349	  9.07941	  1.57394	 -0.35650	 11.16872	706.25897	 24.00	
 11.903	 65.403	 10.51275	  6.93040	  3.39273	  8.85511	  1.74576	 -0.36518	 11.17105	706.22601	 24.00	
 11.897	 57.268	 10.51422	  7.46106	  2.92448	  8.55177	  1.99318	 -0.37328	 11.17857	706.34399	 24.00	
 11.894	 49.133	 10.49117	  7.92943	  2.50099	  8.15698	  2.29746	 -0.39578	 11.15777	706.22803	 24.00	
 11.902	 40.852	 10.47370	  8.35358	  2.12663	  7.70887	  2.65646	 -0.42820	 11.15586	706.23499	 24.00	
 11.909	 32.701	 10.49462	  8.73332	  1.83209	  7.23447	  3.08202	 -0.45394	 11.18891	706.31299	 24.00	
 11.889	 24.555	 10.47233	  9.00204	  1.59745	  6.67721	  3.55841	 -0.45768	 11.17243	706.22302	 24.00	
 11.890	 16.390	 10.45348	  9.19328	  1.42734	  6.10209	  4.06541	 -0.44345	 11.15860	706.24200	 24.00	
 11.899	  8.217	 10.46036	  9.32623	  1.32808	  5.53012	  4.61157	 -0.42395	 11.17655	706.19397	 24.00	
 11.900	  0.000	 10.45676	  9.35943	  1.30127	  4.92955	  5.19342	 -0.39960	 11.17843	706.34399	 24.00	
 11.899	 -8.217	 10.43977	  9.29320	  1.33629	  4.34941	  5.76359	 -0.37554	 11.16818	706.13898	 24.00	
 11.890	-16.390	 10.41882	  9.13673	  1.44827	  3.79045	  6.32868	 -0.34998	 11.14948	706.23700	 24.00	
 11.889	-24.555	 10.42881	  8.92290	  1.63453	  3.27113	  6.90512	 -0.33028	 11.17470	706.25897	 24.00	
 11.909	-32.701	 10.43183	  8.62486	  1.87934	  2.79218	  7.44402	 -0.31026	 11.18673	706.26501	 24.00	
 11.902	-40.852	 10.39244	  8.21607	  2.18759	  2.36425	  7.90083	 -0.29775	 11.14598	706.29602	 24.00	
 11.894	-49.133	 10.40841	  7.77630	  2.56889	  1.98799	  8.35867	 -0.30591	 11.17272	706.33197	 24.00	
 11.897	-57.268	 10.40305	  7.27752	  2.99569	  1.67621	  8.72723	 -0.31296	 11.17705	706.30103	 24.00	
 11.903	-65.403	 10.41884	  6.74806	  3.47984	  1.42975	  9.04103	 -0.32266	 11.19517	706.13599	 24.00	
 11.893	-73.654	 10.38644	  6.15212	  3.99297	  1.25064	  9.22782	 -0.32369	 11.16627	706.08801	 24.00	
 11.892	-81.845	 10.37680	  5.56281	  4.54482	  1.15169	  9.33989	 -0.32386	 11.15728	706.14203	 24.00	
 11.900	-90.000	 10.39700	  4.98581	  5.12505	  1.11753	  9.40176	 -0.33019	 11.17432	706.15802	 24.00	
 11.892	-98.155	 10.40391	  4.41600	  5.70838	  1.16228	  9.35397	 -0.34648	 11.18253	706.23102	 24.00	
 11.893	-106.346	 10.39949	  3.86408	  6.27947	  1.26530	  9.21526	 -0.34750	 11.17349	706.19800	 24.00	
 11.903	-114.597	 10.39940	  3.34236	  6.84630	  1.44147	  8.99630	 -0.33221	 11.17134	706.16998	 24.00	
 11.897	-122.732	 10.41738	  2.88045	  7.37965	  1.70118	  8.69962	 -0.31371	 11.17763	706.25098	 24.00	
 11.894	-130.867	 10.43911	  2.47352	  7.87399	  2.02385	  8.33201	 -0.29331	 11.19077	706.32202	 24.00	
 11.902	-139.148	 10.43419	  2.10914	  8.30438	  2.40464	  7.87663	 -0.29053	 11.17490	706.38599	 24.00	
 11.909	-147.299	 10.45107	  1.81116	  8.67903	  2.83363	  7.39492	 -0.29809	 11.18445	706.26202	 24.00	
 11.889	-155.445	 10.47080	  1.59356	  8.97154	  3.32636	  6.86765	 -0.30522	 11.18912	706.20599	 24.00	
 11.890	-163.610	 10.49602	  1.43422	  9.19640	  3.86611	  6.30634	 -0.31148	 11.20337	706.19000	 24.00	
 11.899	-171.783	 10.49997	  1.33928	  9.32195	  4.42185	  5.72817	 -0.30994	 11.19715	706.06799	 24.00	
 11.900	180.000	 10.49972	  1.31838	  9.35030	  4.99913	  5.14812	 -0.30696	 11.18361	706.32098	 24.00	
 13.600	180.000	 10.23163	  0.62800	  9.72339	  4.78252	  4.91584	 -0.39225	 11.18220	706.22601	 24.00	
 13.608	-172.853	 10.21601	  0.63731	  9.69442	  4.20472	  5.48151	 -0.39698	 11.18088	706.15601	 24.00	
 13.611	-165.583	 10.21028	  0.71465	  9.58462	  3.63780	  6.06856	 -0.39792	 11.18456	706.18103	 24.00	
 13.601	-158.353	 10.19014	  0.85132	  9.38508	  3.09063	  6.64174	 -0.38635	 11.17970	706.15802	 24.00	
 13.609	-151.210	 10.17248	  1.04419	  9.11858	  2.58961	  7.18216	 -0.37650	 11.16671	706.36902	 24.00	
 13.611	-143.999	 10.18097	  1.30378	  8.80704	  2.13945	  7.71522	 -0.36727	 11.19313	706.23401	 24.00	
 13.601	-136.825	 10.16956	  1.61330	  8.41054	  1.72568	  8.19466	 -0.35796	 11.18770	706.23901	 24.00	
 13.596	-129.640	 10.14949	  1.97689	  7.95426	  1.36360	  8.61697	 -0.36290	 11.17792	706.08801	 24.00	
