FileType=PCF
NHL=14
Date=10/23/18	14:25:55
Facility=APL
Serial=16328-5
Customer=NASA
NP=6
Mach=0.250000
Calibration=1:1
CalPts=490
TstPts=95
PortNumbering=AP Standard
Units=Torr C m/s kg/m^3 deg mm 
Theta[deg]	Phi[deg]	P1[Torr]	P2[Torr]	P3[Torr]	P4[Torr]	P5[Torr]	P6[Torr]	Pt[Torr]	Ps[Abs,Torr]	Ts[C]	
  0.000	  0.000	 30.93308	 16.54511	 15.74368	 15.69220	 16.43052	  0.19390	 30.91191	707.72601	 34.30	
  1.691	128.401	 30.89033	 15.50932	 16.70714	 17.05038	 15.10333	  0.18033	 30.87700	707.83899	 34.50	
  1.692	 77.194	 30.89799	 16.88563	 15.31605	 17.35303	 14.78590	  0.17566	 30.87882	707.76898	 34.70	
  1.699	 26.182	 30.90325	 17.93032	 14.15774	 16.43161	 15.65949	  0.16727	 30.88593	707.84100	 34.90	
  1.699	-26.182	 30.90098	 17.90342	 14.12068	 14.89958	 17.03316	  0.15916	 30.89325	707.82001	 35.00	
  1.692	-77.194	 30.92564	 16.83736	 15.33413	 14.02988	 17.89875	  0.16709	 30.91567	707.88702	 35.10	
  1.691	-128.401	 30.91245	 15.46878	 16.70971	 14.37730	 17.60859	  0.17331	 30.89667	707.79102	 35.10	
  1.700	180.000	 30.92290	 14.80048	 17.31835	 15.63983	 16.39273	  0.18283	 30.91080	707.74701	 35.20	
  3.400	180.000	 30.84562	 13.01519	 18.85308	 15.53573	 16.26217	  0.11775	 30.88292	707.81097	 35.20	
  3.388	-152.325	 30.85667	 13.35429	 18.45985	 14.00752	 17.73868	  0.13203	 30.90901	707.81702	 35.30	
  3.397	-124.529	 30.91856	 14.39249	 17.46333	 12.80419	 18.90169	  0.11611	 30.96435	707.72601	 35.30	
  3.399	-96.763	 30.83655	 15.93256	 15.91548	 12.24399	 19.47256	  0.08667	 30.89559	707.78400	 35.30	
  3.394	-69.283	 30.84076	 17.39624	 14.33934	 12.37897	 19.24718	  0.06927	 30.88486	707.76300	 35.30	
  3.400	-41.398	 30.82395	 18.66729	 12.92637	 13.28942	 18.30657	  0.09587	 30.89185	707.84198	 35.30	
  3.401	-14.021	 30.81134	 19.44536	 12.21346	 14.64659	 16.96546	  0.08513	 30.84242	707.77399	 35.40	
  3.401	 14.021	 30.80662	 19.44768	 12.19726	 16.38674	 15.33820	  0.15489	 30.84608	707.79498	 35.40	
  3.400	 41.398	 30.84839	 18.80392	 12.97117	 17.80777	 14.00034	  0.08540	 30.88748	707.81799	 35.50	
  3.394	 69.283	 30.82714	 17.51637	 14.36011	 18.67472	 13.09042	  0.09066	 30.91923	707.76599	 35.50	
  3.399	 96.763	 30.82775	 16.05538	 15.90429	 18.87043	 12.92843	  0.10016	 30.89827	707.76599	 35.50	
  3.397	124.529	 30.85513	 14.47695	 17.38322	 18.37299	 13.47849	  0.11531	 30.87973	707.77698	 35.60	
  3.388	152.325	 30.84442	 13.42599	 18.39910	 17.19496	 14.74831	  0.13101	 30.86893	707.72601	 35.60	
  5.099	161.165	 30.68266	 11.44406	 20.10824	 17.06187	 14.45630	  0.02477	 30.86818	707.82599	 35.60	
  5.109	142.013	 30.70598	 12.25291	 19.28015	 18.50664	 12.95454	  0.02943	 30.88195	707.79303	 35.60	
  5.095	123.033	 30.70811	 13.46284	 17.95450	 19.64408	 11.84515	 -0.01169	 30.86977	707.85699	 35.60	
  5.105	104.191	 30.73738	 14.94342	 16.55666	 20.32437	 11.16630	  0.00062	 30.89750	707.78699	 35.60	
  5.093	 85.207	 30.71215	 16.62340	 14.95209	 20.39744	 11.05150	 -0.05926	 30.87167	707.78802	 35.60	
  5.104	 66.290	 30.76208	 18.14088	 13.23910	 20.05735	 11.38101	 -0.00019	 30.91833	707.83301	 35.60	
  5.094	 47.331	 30.72586	 19.46683	 11.80708	 19.04348	 12.28018	  0.00336	 30.89108	707.81097	 35.60	
  5.089	 28.397	 30.69895	 20.37483	 10.85699	 17.70537	 13.56973	  0.00409	 30.86671	707.78802	 35.70	
  5.096	  9.576	 30.67974	 20.83891	 10.39407	 16.18550	 15.12995	 -0.00450	 30.85489	707.76599	 35.70	
  5.096	 -9.576	 30.67564	 20.83358	 10.38670	 14.45745	 16.71312	 -0.01425	 30.86540	707.75201	 35.70	
  5.089	-28.397	 30.67359	 20.30757	 10.86926	 12.94334	 18.16840	 -0.04171	 30.87589	707.65503	 35.70	
  5.094	-47.331	 30.63542	 19.28905	 11.89174	 11.58594	 19.52053	 -0.04995	 30.84236	707.74200	 35.70	
  5.104	-66.290	 30.65204	 17.92824	 13.27654	 10.72700	 20.45991	 -0.12209	 30.87601	707.67499	 35.70	
  5.093	-85.207	 30.58800	 16.40196	 14.87027	 10.37041	 20.82976	 -0.04672	 30.81382	707.62299	 35.80	
  5.105	-104.191	 30.61614	 14.73372	 16.51511	 10.51908	 20.70609	 -0.08585	 30.84100	707.54498	 35.80	
  5.095	-123.033	 30.62431	 13.29421	 18.00403	 11.12652	 20.09104	 -0.00719	 30.85104	707.69897	 35.80	
  5.109	-142.013	 30.62570	 12.12862	 19.25595	 12.27015	 18.99313	  0.00956	 30.84763	707.63898	 35.80	
  5.099	-161.165	 30.66671	 11.37738	 20.13257	 13.73487	 17.56043	  0.02049	 30.87718	707.67902	 35.80	
  5.100	180.000	 30.65375	 11.10108	 20.37403	 15.35738	 16.00254	  0.03523	 30.84726	707.65503	 35.80	
  6.800	180.000	 30.36714	  9.45218	 21.71597	 15.07505	 15.68889	 -0.11279	 30.84279	707.64697	 35.80	
  6.796	-166.229	 30.35900	  9.60962	 21.50458	 13.49228	 17.22818	 -0.19289	 30.83576	707.67401	 35.80	
  6.808	-152.311	 30.35258	 10.03621	 20.94084	 11.99234	 18.66725	 -0.18004	 30.84942	707.71802	 35.80	
  6.795	-138.383	 30.34589	 10.78108	 19.99744	 10.67989	 20.06450	 -0.21293	 30.84995	707.54999	 35.80	
  6.792	-124.591	 30.29183	 11.86689	 18.72662	  9.73999	 21.00820	 -0.22869	 30.80474	707.67200	 35.90	
  6.787	-110.754	 30.29133	 13.24386	 17.32588	  9.05667	 21.70098	 -0.26303	 30.80429	707.60999	 35.90	
  6.800	-96.985	 30.28255	 14.75330	 15.77423	  8.66373	 22.08516	 -0.29600	 30.79304	707.63898	 35.90	
  6.800	-83.015	 30.27602	 16.36405	 14.09580	  8.60770	 22.09486	 -0.25562	 30.78732	707.69397	 36.00	
  6.787	-69.246	 30.28511	 17.84999	 12.52681	  8.94794	 21.70791	 -0.33256	 30.78356	707.63397	 36.00	
  6.792	-55.409	 30.27577	 19.28670	 11.04838	  9.60871	 20.92989	 -0.33200	 30.76445	707.75299	 36.00	
  6.795	-41.617	 30.28015	 20.43506	 10.06191	 10.52494	 19.85573	 -0.31350	 30.75603	707.71503	 36.10	
  6.808	-27.689	 30.30881	 21.35476	  9.26377	 11.83018	 18.47817	 -0.28142	 30.78014	707.73700	 36.10	
  6.796	-13.771	 30.32774	 21.95569	  8.79686	 13.32943	 17.08517	 -0.26726	 30.79056	707.64001	 36.10	
  6.800	  0.000	 30.37400	 22.20088	  8.65341	 14.93223	 15.56670	 -0.22843	 30.80281	707.71002	 36.10	
  6.796	 13.771	 30.34983	 22.04019	  8.79151	 16.58856	 13.92668	 -0.19106	 30.79415	707.61499	 36.10	
  6.808	 27.689	 30.40978	 21.50618	  9.23507	 18.09473	 12.45929	 -0.22623	 30.83857	707.63098	 36.20	
  6.795	 41.617	 30.43972	 20.65883	 10.03813	 19.44432	 11.16229	 -0.20679	 30.83342	707.73401	 36.20	
  6.792	 55.409	 30.45645	 19.55602	 11.10556	 20.54734	 10.27358	 -0.19918	 30.86011	707.68201	 36.20	
  6.787	 69.246	 30.40278	 18.14348	 12.53443	 21.29516	  9.62820	 -0.19063	 30.81036	707.70599	 36.20	
  6.800	 83.015	 30.41202	 16.69028	 14.08220	 21.72148	  9.29634	 -0.23308	 30.82247	707.67200	 36.20	
  6.800	 96.985	 30.42751	 15.04211	 15.80519	 21.80503	  9.31205	 -0.18526	 30.81271	707.68799	 36.20	
  6.787	110.754	 30.42683	 13.55016	 17.34055	 21.38243	  9.66046	 -0.19153	 30.83973	707.66400	 36.20	
  6.792	124.591	 30.41750	 12.12958	 18.73653	 20.65016	 10.27672	 -0.20539	 30.85265	707.70203	 36.20	
  6.795	138.383	 30.45689	 10.92739	 20.04968	 19.59644	 11.26173	 -0.20056	 30.81799	707.76099	 36.20	
  6.808	152.311	 30.36397	 10.08590	 20.93637	 18.24795	 12.62522	 -0.13279	 30.81392	707.74402	 36.10	
  6.796	166.229	 30.39554	  9.65842	 21.54814	 16.75747	 14.11485	 -0.13054	 30.75974	707.80402	 36.10	
  8.491	168.704	 30.02762	  7.82190	 22.82526	 16.31864	 13.64653	 -0.43663	 30.88627	707.79102	 36.10	
  8.502	157.493	 30.02979	  8.26634	 22.28938	 18.03075	 12.04126	 -0.39600	 30.86499	707.83099	 36.10	
  8.494	146.194	 30.03491	  8.93383	 21.59764	 19.43735	 10.68421	 -0.26983	 30.90092	707.77600	 36.10	
  8.495	135.039	 30.11135	  9.80040	 20.61126	 20.74753	  9.57602	 -0.41820	 30.95016	707.77399	 36.00	
  8.487	123.723	 30.09560	 10.86410	 19.31306	 21.78908	  8.71873	 -0.44205	 30.89512	707.69098	 36.00	
  8.492	112.575	 30.11862	 12.33240	 17.79836	 22.49053	  8.12282	 -0.52002	 30.93696	707.74701	 35.90	
  8.510	101.220	 30.07646	 13.86616	 16.27155	 22.84664	  7.69067	 -0.48707	 30.86189	707.70203	 35.90	
  8.500	 90.000	 30.06635	 15.41331	 14.57267	 23.03741	  7.49862	 -0.48745	 30.87798	707.62903	 35.90	
  8.510	 78.780	 30.08277	 17.10567	 12.82533	 22.87961	  7.58615	 -0.49317	 30.84292	707.69098	 35.90	
  8.492	 67.425	 30.08355	 18.59344	 11.18438	 22.37417	  7.97651	 -0.49155	 30.89618	707.69598	 35.90	
  8.487	 56.277	 30.04931	 20.01719	  9.91556	 21.58884	  8.60540	 -0.40969	 30.85452	707.68799	 35.90	
  8.495	 44.961	 30.07960	 21.16029	  8.84106	 20.56420	  9.42334	 -0.39626	 30.85449	707.64001	 35.90	
  8.494	 33.806	 30.07255	 22.17030	  7.99798	 19.18571	 10.52292	 -0.43012	 30.80215	707.73901	 35.90	
  8.502	 22.507	 30.02340	 22.96712	  7.32786	 17.77867	 11.91486	 -0.47364	 30.86552	707.70203	 35.90	
  8.491	 11.296	 29.96098	 23.37356	  6.91130	 16.16325	 13.45263	 -0.43486	 30.78353	707.69397	 35.90	
  8.500	  0.000	 29.99034	 23.57248	  6.79245	 14.50550	 15.06292	 -0.45658	 30.84429	707.72101	 36.00	
  8.491	-11.296	 30.03310	 23.43455	  6.93704	 12.90975	 16.74512	 -0.48479	 30.91363	707.67401	 36.00	
  8.502	-22.507	 29.99948	 22.86694	  7.32045	 11.22758	 18.19856	 -0.52065	 30.82478	707.64203	 36.00	
  8.494	-33.806	 29.93085	 21.99431	  7.98626	  9.95036	 19.70616	 -0.52230	 30.79638	707.64203	 35.90	
  8.495	-44.961	 29.90347	 20.91627	  8.82542	  8.75159	 20.98139	 -0.55380	 30.78871	707.66699	 35.90	
  8.487	-56.277	 29.95300	 19.72058	  9.90384	  7.89402	 21.97929	 -0.56968	 30.79398	707.64001	 36.00	
  8.492	-67.425	 29.91981	 18.26566	 11.08725	  7.25283	 22.71738	 -0.60756	 30.83457	707.65002	 36.00	
  8.510	-78.780	 29.91452	 16.74877	 12.77889	  6.81388	 23.20538	 -0.58038	 30.84100	707.61700	 36.00	
  8.500	-90.000	 29.90676	 15.09479	 14.45279	  6.68335	 23.40965	 -0.59564	 30.83831	707.63098	 36.00	
  8.510	-101.220	 29.92013	 13.53305	 16.17837	  6.89417	 23.28373	 -0.54045	 30.84408	707.67401	 36.00	
  8.492	-112.575	 29.92966	 11.96059	 17.78102	  7.37509	 22.78830	 -0.48181	 30.86850	707.63202	 36.00	
  8.487	-123.723	 29.94419	 10.64282	 19.20153	  8.07734	 22.05436	 -0.42954	 30.86023	707.56097	 36.00	
  8.495	-135.039	 29.95129	  9.58529	 20.56151	  9.01269	 21.07251	 -0.40400	 30.87877	707.66302	 36.00	
  8.494	-146.194	 29.96830	  8.76555	 21.60863	 10.18471	 19.84631	 -0.42573	 30.87752	707.64801	 36.00	
  8.502	-157.493	 29.98123	  8.14300	 22.33684	 11.43462	 18.36416	 -0.42286	 30.88151	707.61798	 35.90	
  8.491	-168.704	 29.97708	  7.75778	 22.80983	 13.07137	 16.92143	 -0.41659	 30.87040	707.74402	 35.90	
  8.500	180.000	 30.02769	  7.64367	 23.01640	 14.73810	 15.34400	 -0.30029	 30.90137	707.60199	 35.90	
 10.200	180.000	 29.51188	  5.73178	 24.28097	 14.27872	 14.76536	 -0.66799	 30.91026	707.62598	 35.90	
 10.191	-170.497	 29.47834	  5.84351	 24.10487	 12.62068	 16.45606	 -0.68194	 30.88604	707.70599	 35.90	
 10.210	-161.034	 29.43288	  6.12873	 23.66423	 11.00037	 17.92409	 -0.69794	 30.86695	707.69000	 35.80	
 10.194	-151.526	 29.46210	  6.67319	 22.99087	  9.64667	 19.48771	 -0.68070	 30.91693	707.61499	 35.80	
 10.190	-142.105	 29.43451	  7.39715	 22.05552	  8.32949	 20.89608	 -0.66829	 30.88862	707.67401	 35.80	
 10.215	-132.646	 29.38686	  8.29677	 20.95087	  7.16436	 22.07008	 -0.65063	 30.86616	707.67902	 35.70	
 10.203	-123.092	 29.41047	  9.41954	 19.61728	  6.29619	 23.02935	 -0.65060	 30.87507	707.61298	 35.70	
 10.192	-113.678	 29.41845	 10.64894	 18.12781	  5.64460	 23.77760	 -0.70339	 30.85735	707.73602	 35.80	
 10.208	-104.249	 29.37517	 12.10323	 16.53804	  5.09621	 24.31911	 -0.78382	 30.82097	707.67401	 35.80	
 10.210	-94.801	 29.41807	 13.75078	 14.85893	  4.79463	 24.64783	 -0.83367	 30.86634	707.67499	 35.80	
 10.210	-85.199	 29.39860	 15.38988	 13.06036	  4.74069	 24.62917	 -0.85884	 30.84295	707.66400	 35.90	
 10.208	-75.751	 29.40244	 17.10834	 11.30059	  4.97599	 24.29873	 -0.87489	 30.83056	707.60999	 35.90	
 10.192	-66.322	 29.42048	 18.58317	  9.96772	  5.44075	 23.72246	 -0.88146	 30.83282	707.56702	 35.90	
 10.203	-56.908	 29.45035	 20.07609	  8.68312	  6.07871	 22.96845	 -0.87271	 30.86448	707.67902	 35.90	
 10.215	-47.354	 29.47354	 21.35044	  7.57469	  6.98236	 22.00224	 -0.82211	 30.87317	707.64203	 35.90	
 10.190	-37.895	 29.50523	 22.53569	  6.61215	  8.10360	 20.78722	 -0.76647	 30.88226	707.57501	 35.90	
 10.194	-28.474	 29.52401	 23.49921	  5.85598	  9.39919	 19.37735	 -0.73941	 30.88580	707.61499	 35.90	
 10.210	-18.966	 29.50123	 24.22069	  5.26434	 10.66600	 17.84263	 -0.72525	 30.85706	707.67999	 35.90	
 10.191	 -9.503	 29.55105	 24.65914	  4.95881	 12.27502	 16.34127	 -0.71796	 30.88694	707.65198	 35.80	
 10.200	  0.000	 29.56876	 24.85580	  4.82825	 14.01451	 14.54760	 -0.72199	 30.89984	707.66602	 35.80	
 10.191	  9.503	 29.59808	 24.76488	  4.92431	 15.66374	 12.95481	 -0.68719	 30.91193	707.65503	 35.80	
 10.210	 18.966	 29.66698	 24.41170	  5.32380	 17.38687	 11.35221	 -0.71012	 30.96843	707.66302	 35.80	
 10.194	 28.474	 29.59826	 23.66598	  5.88173	 18.84023	  9.97186	 -0.70678	 30.87435	707.67999	 35.70	
 10.190	 37.895	 29.60095	 22.79210	  6.57243	 20.29155	  8.76684	 -0.66268	 30.87220	707.68799	 35.70	
 10.215	 47.354	 29.58911	 21.61299	  7.54041	 21.53029	  7.70862	 -0.62850	 30.84771	707.69397	 35.60	
 10.203	 56.908	 29.59830	 20.34439	  8.68806	 22.51867	  6.84221	 -0.64199	 30.85442	707.65503	 35.70	
 10.192	 66.322	 29.62823	 18.97463	 10.00740	 23.36143	  6.27370	 -0.69311	 30.86402	708.01202	 35.70	
 10.208	 75.751	 29.63994	 17.48026	 11.50030	 23.98314	  5.83217	 -0.73543	 30.88189	707.65601	 35.70	
 10.210	 85.199	 29.63038	 15.79440	 13.16577	 24.30935	  5.60339	 -0.75552	 30.87764	707.62299	 35.80	
 10.210	 94.801	 29.59947	 14.15495	 14.90549	 24.31849	  5.62395	 -0.78420	 30.84835	707.67499	 35.80	
 10.208	104.249	 29.57397	 12.57180	 16.61521	 23.99791	  5.91531	 -0.78247	 30.82722	707.64801	 35.80	
 10.192	113.678	 29.55866	 10.97643	 18.12714	 23.48226	  6.34537	 -0.76793	 30.83649	707.59100	 35.80	
 10.203	123.092	 29.53874	  9.76094	 19.61536	 22.68995	  6.96383	 -0.72608	 30.84044	707.61798	 35.80	
 10.215	132.646	 29.51902	  8.59895	 20.99765	 21.74143	  7.81478	 -0.67822	 30.84636	707.61798	 35.80	
 10.190	142.105	 29.54399	  7.63351	 22.12253	 20.54188	  8.89007	 -0.63771	 30.88777	707.64203	 35.80	
 10.194	151.526	 29.53852	  6.88709	 22.98704	 19.06445	 10.09071	 -0.63533	 30.88984	707.69098	 35.80	
 10.210	161.034	 29.53861	  6.29216	 23.70321	 17.62586	 11.50371	 -0.65689	 30.89668	707.67499	 35.80	
 10.191	170.497	 29.52302	  5.90762	 24.11073	 15.96008	 13.15179	 -0.66180	 30.89531	707.71997	 35.80	
 11.899	171.783	 28.85247	  3.94464	 25.30940	 15.42321	 12.53182	 -0.91134	 30.87591	707.63397	 35.70	
 11.890	163.610	 28.87522	  4.32017	 24.91888	 17.04048	 10.85835	 -0.89337	 30.85653	707.56897	 35.70	
 11.889	155.445	 28.88028	  4.80796	 24.30947	 18.55047	  9.50259	 -0.87155	 30.87005	707.63098	 35.70	
 11.909	147.299	 28.85857	  5.41873	 23.50434	 20.13513	  8.23191	 -0.84933	 30.85497	707.63898	 35.70	
 11.902	139.148	 28.87556	  6.27140	 22.46129	 21.42864	  7.05552	 -0.87136	 30.85171	707.66699	 35.70	
 11.894	130.867	 28.90397	  7.34748	 21.32049	 22.59997	  6.04714	 -0.91275	 30.85129	707.58301	 35.70	
 11.897	122.732	 28.97067	  8.55365	 19.99400	 23.67300	  5.21140	 -0.97834	 30.88928	707.65900	 35.80	
 11.903	114.597	 29.00689	  9.82146	 18.51110	 24.50011	  4.58798	 -1.03104	 30.89928	707.65601	 35.80	
 11.893	106.346	 29.07878	 11.22205	 16.95283	 25.10772	  4.12392	 -1.05035	 30.94033	707.61798	 35.70	
 11.892	 98.155	 29.06629	 12.85683	 15.18478	 25.43937	  3.80783	 -1.05312	 30.90804	707.61798	 35.70	
 11.900	 90.000	 29.06215	 14.46918	 13.51492	 25.53207	  3.69687	 -1.03025	 30.89672	707.65900	 35.70	
 11.892	 81.845	 29.06586	 16.06383	 11.76358	 25.35275	  3.79220	 -1.00967	 30.87788	707.66400	 35.60	
 11.893	 73.654	 29.11649	 17.71647	 10.22539	 24.99363	  4.07831	 -0.97180	 30.92963	707.63098	 35.60	
 11.903	 65.403	 29.09892	 19.23073	  8.77667	 24.37593	  4.47911	 -0.93255	 30.92407	707.65198	 35.60	
 11.897	 57.268	 29.10777	 20.69499	  7.47649	 23.50956	  5.09568	 -0.86068	 30.93570	707.62402	 35.60	
 11.894	 49.133	 29.08396	 22.02701	  6.27024	 22.44342	  5.95391	 -0.82749	 30.92211	707.62903	 35.50	
 11.902	 40.852	 29.03129	 23.18698	  5.23444	 21.24560	  6.97776	 -0.87576	 30.87652	707.67102	 35.50	
 11.909	 32.701	 29.05923	 24.24093	  4.37900	 19.89362	  8.15726	 -0.93890	 30.93510	707.62299	 35.50	
 11.889	 24.555	 29.03214	 24.98910	  3.76821	 18.34528	  9.42124	 -0.95178	 30.89912	707.62903	 35.50	
 11.890	 16.390	 29.04298	 25.56792	  3.31564	 16.71889	 10.81491	 -0.94133	 30.91981	707.64203	 35.60	
 11.899	  8.217	 28.98135	 25.89782	  2.96219	 15.08056	 12.32864	 -0.93424	 30.88899	707.61700	 35.50	
 11.900	  0.000	 28.95718	 25.95940	  2.89792	 13.42653	 13.97790	 -0.94876	 30.86411	707.61700	 35.50	
 11.899	 -8.217	 28.96927	 25.83881	  3.03641	 11.64484	 15.66863	 -0.95466	 30.90863	707.70398	 35.60	
 11.890	-16.390	 28.99598	 25.46460	  3.35477	 10.20551	 17.40563	 -0.94801	 30.94851	707.66302	 35.60	
 11.889	-24.555	 28.97561	 24.82692	  3.82316	  8.80042	 18.91181	 -0.94118	 30.93302	707.60199	 35.60	
 11.909	-32.701	 28.93423	 24.00147	  4.43696	  7.41740	 20.39097	 -0.95568	 30.92512	707.66602	 35.50	
 11.902	-40.852	 28.93752	 22.93541	  5.31753	  6.24940	 21.74540	 -0.99711	 30.93106	707.56201	 35.50	
 11.894	-49.133	 28.95881	 21.73190	  6.28157	  5.16827	 22.89816	 -1.05413	 30.97591	707.68298	 35.50	
 11.897	-57.268	 28.91993	 20.40639	  7.38567	  4.22494	 23.89862	 -1.09263	 30.94663	707.64502	 35.40	
 11.903	-65.403	 28.91945	 18.92530	  8.70347	  3.50829	 24.73482	 -1.10649	 30.96789	707.58502	 35.40	
 11.893	-73.654	 28.91788	 17.40752	 10.11010	  3.02246	 25.36504	 -1.08007	 30.97654	707.64001	 35.30	
 11.892	-81.845	 28.89838	 15.71049	 11.61861	  2.76565	 25.73012	 -1.09042	 30.96012	707.63898	 35.30	
 11.900	-90.000	 28.86561	 14.04687	 13.38055	  2.66985	 25.86998	 -1.08168	 30.94778	707.62097	 35.30	
 11.892	-98.155	 28.88660	 12.37838	 15.12507	  2.89516	 25.75768	 -1.04934	 30.96481	707.57501	 35.20	
 11.893	-106.346	 28.81818	 10.80835	 16.80322	  3.24749	 25.35255	 -0.97980	 30.89945	707.61798	 35.20	
 11.903	-114.597	 28.84987	  9.44895	 18.43412	  3.81938	 24.77989	 -0.90775	 30.94235	707.64502	 35.20	
 11.897	-122.732	 28.77233	  8.17327	 19.88608	  4.53463	 23.92037	 -0.85514	 30.86805	707.69897	 35.20	
 11.894	-130.867	 28.80694	  7.01269	 21.29846	  5.39370	 22.94149	 -0.84653	 30.92801	707.68799	 35.30	
 11.902	-139.148	 28.80851	  6.00126	 22.43930	  6.46435	 21.80685	 -0.87701	 30.92662	707.62097	 35.30	
 11.909	-147.299	 28.83876	  5.19080	 23.50774	  7.72149	 20.53057	 -0.91395	 30.94278	707.67102	 35.30	
 11.889	-155.445	 28.88017	  4.62381	 24.37363	  9.09427	 19.03531	 -0.92787	 30.97546	707.63702	 35.30	
 11.890	-163.610	 28.85920	  4.18867	 24.95630	 10.54145	 17.45426	 -0.93050	 30.92637	707.67401	 35.30	
 11.899	-171.783	 28.90033	  3.92247	 25.36809	 11.99093	 15.92289	 -0.92448	 30.95420	707.71802	 35.20	
 11.900	180.000	 28.95051	  3.82182	 25.52711	 13.80468	 14.22080	 -0.91140	 30.99388	707.68201	 35.20	
 13.600	180.000	 28.14548	  1.68571	 26.57554	 13.14226	 13.48875	 -1.12357	 30.94714	707.64801	 35.20	
 13.608	-172.853	 28.10158	  1.80764	 26.43593	 11.44508	 15.11188	 -1.11961	 30.90850	707.62598	 35.20	
 13.611	-165.583	 28.07339	  2.02252	 26.10999	  9.92580	 16.85279	 -1.13647	 30.91805	707.64203	 35.20	
 13.601	-158.353	 28.10162	  2.44751	 25.58367	  8.47383	 18.44135	 -1.14279	 30.95797	707.66400	 35.20	
 13.609	-151.210	 28.06204	  3.03628	 24.77243	  7.06507	 20.01098	 -1.13090	 30.92436	707.63098	 35.20	
 13.611	-143.999	 28.09797	  3.71477	 23.92402	  5.76766	 21.32843	 -1.09948	 30.99495	707.68701	 35.30	
 13.601	-136.825	 28.07551	  4.60055	 22.77550	  4.59363	 22.57662	 -1.04707	 30.96511	707.70203	 35.20	
 13.596	-129.640	 28.08893	  5.64196	 21.55025	  3.48825	 23.77932	 -1.01252	 30.97576	707.58197	 35.20	
