FileType=PCF
NHL=14
Date=10/23/18	16:58:01
Facility=APL
Serial=16328-5
Customer=NASA
NP=6
Mach=0.050000
Calibration=1:1
CalPts=490
TstPts=95
PortNumbering=AP Standard
Units=Torr C m/s kg/m^3 deg mm 
Theta[deg]	Phi[deg]	P1[Torr]	P2[Torr]	P3[Torr]	P4[Torr]	P5[Torr]	P6[Torr]	Pt[Torr]	Ps[Abs,Torr]	Ts[C]	
  0.000	  0.000	  1.22936	  0.66347	  0.64319	  0.64599	  0.65521	  0.00549	  1.22128	707.42902	 23.70	
  1.691	128.401	  1.23240	  0.63740	  0.66805	  0.67820	  0.62031	  0.00496	  1.22429	707.67999	 23.70	
  1.692	 77.194	  1.23054	  0.67696	  0.62338	  0.68809	  0.60927	  0.00513	  1.22302	707.43201	 23.70	
  1.699	 26.182	  1.23048	  0.71575	  0.58636	  0.65807	  0.63235	  0.00450	  1.22250	707.00299	 23.70	
  1.699	-26.182	  1.22860	  0.71429	  0.58371	  0.60863	  0.68019	  0.00335	  1.22053	707.06201	 23.70	
  1.692	-77.194	  1.22274	  0.67086	  0.61615	  0.57930	  0.70909	  0.00328	  1.21448	707.13599	 23.70	
  1.691	-128.401	  1.22803	  0.63130	  0.66455	  0.59203	  0.70018	  0.00311	  1.21977	707.15698	 23.70	
  1.700	180.000	  1.22955	  0.61454	  0.68856	  0.63381	  0.65718	  0.00409	  1.22179	707.04999	 23.70	
  3.400	180.000	  1.22824	  0.54743	  0.75102	  0.62783	  0.65276	  0.00116	  1.22251	706.98999	 23.70	
  3.388	-152.325	  1.22527	  0.55633	  0.73423	  0.57249	  0.70732	  0.00105	  1.21968	706.96600	 23.70	
  3.397	-124.529	  1.22153	  0.58803	  0.69225	  0.53015	  0.75094	  0.00042	  1.21533	707.05200	 23.60	
  3.399	-96.763	  1.22402	  0.63990	  0.63922	  0.51304	  0.77365	  0.00018	  1.21838	707.07599	 23.60	
  3.394	-69.283	  1.22279	  0.69477	  0.58309	  0.51789	  0.76510	 -0.00033	  1.21713	707.04303	 23.60	
  3.400	-41.398	  1.22779	  0.74797	  0.54089	  0.54914	  0.73306	 -0.00068	  1.22228	707.17102	 23.60	
  3.401	-14.021	  1.22615	  0.77734	  0.51418	  0.59537	  0.67994	  0.00016	  1.22053	707.60901	 23.60	
  3.401	 14.021	  1.22585	  0.77837	  0.51408	  0.65475	  0.62098	  0.00081	  1.21978	707.03003	 23.60	
  3.400	 41.398	  1.22494	  0.75106	  0.53875	  0.70525	  0.57349	  0.00162	  1.21913	707.16803	 23.60	
  3.394	 69.283	  1.22723	  0.70267	  0.58433	  0.74231	  0.54551	  0.00218	  1.22118	707.31799	 23.60	
  3.399	 96.763	  1.22847	  0.64835	  0.63946	  0.75138	  0.54212	  0.00186	  1.22237	707.42102	 23.60	
  3.397	124.529	  1.22425	  0.59589	  0.69231	  0.72794	  0.55783	  0.00253	  1.21842	707.11700	 23.60	
  3.388	152.325	  1.22359	  0.55999	  0.73296	  0.68269	  0.59698	  0.00212	  1.21758	707.61700	 23.60	
  5.099	161.165	  1.22086	  0.48821	  0.79919	  0.68067	  0.58550	 -0.00287	  1.22033	707.69598	 23.60	
  5.109	142.013	  1.22109	  0.51358	  0.77005	  0.73675	  0.53400	 -0.00282	  1.22017	707.78497	 23.60	
  5.095	123.033	  1.21875	  0.55567	  0.71914	  0.77845	  0.49732	 -0.00298	  1.21701	707.74701	 23.60	
  5.105	104.191	  1.22179	  0.60935	  0.66319	  0.80653	  0.47551	 -0.00318	  1.21964	707.77698	 23.60	
  5.093	 85.207	  1.22370	  0.66989	  0.60275	  0.81205	  0.47231	 -0.00256	  1.22141	707.75800	 23.60	
  5.104	 66.290	  1.22082	  0.72741	  0.54464	  0.79274	  0.48361	 -0.00305	  1.21833	707.75800	 23.60	
  5.094	 47.331	  1.22446	  0.78219	  0.49804	  0.75876	  0.51426	 -0.00310	  1.22282	707.80701	 23.60	
  5.089	 28.397	  1.22138	  0.81844	  0.46279	  0.70574	  0.55843	 -0.00293	  1.22001	707.70599	 23.60	
  5.096	  9.576	  1.22172	  0.83819	  0.44494	  0.64808	  0.61198	 -0.00447	  1.22024	707.74500	 23.60	
  5.096	 -9.576	  1.22242	  0.83763	  0.44542	  0.58601	  0.67492	 -0.00479	  1.22140	707.69800	 23.60	
  5.089	-28.397	  1.22166	  0.81508	  0.46192	  0.53048	  0.73395	 -0.00527	  1.22102	707.69098	 23.60	
  5.094	-47.331	  1.22277	  0.77721	  0.49570	  0.48569	  0.78540	 -0.00570	  1.22291	707.67200	 23.60	
  5.104	-66.290	  1.22140	  0.72235	  0.54357	  0.45594	  0.81919	 -0.00644	  1.22195	707.48798	 23.60	
  5.093	-85.207	  1.22200	  0.66277	  0.60230	  0.44382	  0.83524	 -0.00594	  1.22254	707.53497	 23.60	
  5.105	-104.191	  1.21822	  0.60172	  0.66099	  0.44812	  0.82739	 -0.00559	  1.21917	707.10101	 23.60	
  5.095	-123.033	  1.21689	  0.54944	  0.71717	  0.46977	  0.80107	 -0.00492	  1.21784	707.31299	 23.60	
  5.109	-142.013	  1.21702	  0.50777	  0.76513	  0.50700	  0.75915	 -0.00449	  1.21871	707.63702	 23.60	
  5.099	-161.165	  1.22070	  0.48422	  0.79885	  0.56141	  0.70381	 -0.00378	  1.22153	707.68201	 23.60	
  5.100	180.000	  1.22338	  0.47772	  0.81149	  0.62126	  0.64524	 -0.00379	  1.22374	707.82300	 23.60	
  6.800	180.000	  1.21408	  0.40716	  0.86973	  0.61163	  0.63432	 -0.01003	  1.22505	707.12000	 23.60	
  6.796	-166.229	  1.21005	  0.41121	  0.85940	  0.55189	  0.69213	 -0.00954	  1.22145	707.17297	 23.60	
  6.808	-152.311	  1.21306	  0.42911	  0.83930	  0.49827	  0.75222	 -0.01074	  1.22498	707.62903	 23.60	
  6.795	-138.383	  1.21029	  0.45779	  0.79995	  0.44863	  0.80358	 -0.01042	  1.22224	707.63898	 23.60	
  6.792	-124.591	  1.20635	  0.49586	  0.75018	  0.41106	  0.84207	 -0.01176	  1.21879	707.63898	 23.60	
  6.787	-110.754	  1.20941	  0.54761	  0.69564	  0.38617	  0.87357	 -0.01342	  1.22125	707.62299	 23.60	
  6.800	-96.985	  1.21159	  0.60387	  0.63662	  0.37241	  0.89122	 -0.01355	  1.22329	707.63397	 23.60	
  6.800	-83.015	  1.21150	  0.66371	  0.57608	  0.37221	  0.89042	 -0.01409	  1.22309	707.65900	 23.60	
  6.787	-69.246	  1.21089	  0.72343	  0.51800	  0.38389	  0.87361	 -0.01379	  1.22183	707.61499	 23.60	
  6.792	-55.409	  1.21173	  0.77969	  0.46806	  0.40923	  0.84411	 -0.01282	  1.22334	707.31598	 23.60	
  6.795	-41.617	  1.21174	  0.82671	  0.42670	  0.44445	  0.80254	 -0.01255	  1.22260	707.63898	 23.50	
  6.808	-27.689	  1.21003	  0.86305	  0.39365	  0.49002	  0.74935	 -0.01286	  1.22055	707.64502	 23.50	
  6.796	-13.771	  1.21134	  0.88591	  0.37697	  0.54539	  0.69173	 -0.01308	  1.22096	707.56897	 23.50	
  6.800	  0.000	  1.21014	  0.89430	  0.36968	  0.60180	  0.63091	 -0.01224	  1.21899	707.66699	 23.50	
  6.796	 13.771	  1.21368	  0.88992	  0.37750	  0.66407	  0.57572	 -0.01099	  1.22345	707.66302	 23.50	
  6.808	 27.689	  1.21371	  0.86932	  0.39579	  0.72323	  0.52052	 -0.01032	  1.22159	707.59302	 23.50	
  6.795	 41.617	  1.21039	  0.83135	  0.42693	  0.77461	  0.47262	 -0.00970	  1.21834	707.72302	 23.50	
  6.792	 55.409	  1.21495	  0.78801	  0.46984	  0.82068	  0.43849	 -0.00922	  1.22253	707.68298	 23.50	
  6.787	 69.246	  1.21233	  0.73149	  0.51998	  0.84932	  0.41419	 -0.00957	  1.21948	707.66699	 23.50	
  6.800	 83.015	  1.21636	  0.67618	  0.57770	  0.86835	  0.40353	 -0.00900	  1.22400	707.66302	 23.50	
  6.800	 96.985	  1.21701	  0.61679	  0.63817	  0.87015	  0.40367	 -0.00967	  1.22490	707.33502	 23.50	
  6.787	110.754	  1.21539	  0.56058	  0.69739	  0.85369	  0.41743	 -0.00961	  1.22303	707.68701	 23.50	
  6.792	124.591	  1.21747	  0.51099	  0.75484	  0.82679	  0.44232	 -0.00976	  1.22521	707.74402	 23.40	
  6.795	138.383	  1.21659	  0.46852	  0.80183	  0.78531	  0.47666	 -0.00892	  1.22554	707.59698	 23.40	
  6.808	152.311	  1.21487	  0.43606	  0.83851	  0.73178	  0.52284	 -0.00937	  1.22401	707.63397	 23.40	
  6.796	166.229	  1.21553	  0.41630	  0.86199	  0.67251	  0.57812	 -0.01008	  1.22514	707.66602	 23.40	
  8.491	168.704	  1.19947	  0.34146	  0.91692	  0.66042	  0.56068	 -0.01884	  1.22459	707.65601	 23.40	
  8.502	157.493	  1.19686	  0.35684	  0.89585	  0.71963	  0.50299	 -0.01747	  1.22072	707.59900	 23.40	
  8.494	146.194	  1.20007	  0.38454	  0.86711	  0.77879	  0.45375	 -0.01685	  1.22363	707.59900	 23.40	
  8.495	135.039	  1.20438	  0.42154	  0.82766	  0.83096	  0.41229	 -0.01666	  1.22775	707.63397	 23.40	
  8.487	123.723	  1.20270	  0.46466	  0.77491	  0.87126	  0.37653	 -0.01762	  1.22461	707.68201	 23.30	
  8.492	112.575	  1.20191	  0.51503	  0.71743	  0.90154	  0.34942	 -0.01810	  1.22321	707.61700	 23.30	
  8.510	101.220	  1.20533	  0.57373	  0.65727	  0.92157	  0.33480	 -0.01741	  1.22600	707.62598	 23.30	
  8.500	 90.000	  1.20915	  0.63454	  0.59783	  0.93027	  0.33042	 -0.01649	  1.22994	707.65802	 23.30	
  8.510	 78.780	  1.20298	  0.69294	  0.53350	  0.91760	  0.33377	 -0.01697	  1.22324	707.53101	 23.30	
  8.492	 67.425	  1.20292	  0.75341	  0.47551	  0.89803	  0.34896	 -0.01619	  1.22380	707.59698	 23.30	
  8.487	 56.277	  1.20466	  0.80930	  0.42603	  0.86642	  0.37502	 -0.01519	  1.22473	707.53900	 23.30	
  8.495	 44.961	  1.20106	  0.85709	  0.38090	  0.82007	  0.40959	 -0.01595	  1.22160	707.57501	 23.30	
  8.494	 33.806	  1.20366	  0.89776	  0.34732	  0.77235	  0.45296	 -0.01688	  1.22445	707.67902	 23.30	
  8.502	 22.507	  1.20316	  0.92847	  0.31942	  0.71471	  0.50313	 -0.01715	  1.22522	707.67902	 23.30	
  8.491	 11.296	  1.20004	  0.94405	  0.30371	  0.65135	  0.55918	 -0.01781	  1.22261	707.58197	 23.30	
  8.500	  0.000	  1.19866	  0.94865	  0.29742	  0.58856	  0.61829	 -0.01940	  1.22170	707.57001	 23.30	
  8.491	-11.296	  1.20242	  0.94506	  0.30157	  0.52881	  0.68338	 -0.02120	  1.22698	707.59900	 23.30	
  8.502	-22.507	  1.19924	  0.92271	  0.31696	  0.47055	  0.74202	 -0.02096	  1.22468	707.60498	 23.30	
  8.494	-33.806	  1.19938	  0.89070	  0.34305	  0.42128	  0.79798	 -0.02058	  1.22532	707.65002	 23.20	
  8.495	-44.961	  1.19829	  0.84862	  0.37751	  0.37796	  0.84727	 -0.02086	  1.22442	707.67200	 23.20	
  8.487	-56.277	  1.19958	  0.79822	  0.42246	  0.34225	  0.89030	 -0.02294	  1.22592	707.70599	 23.20	
  8.492	-67.425	  1.19964	  0.74240	  0.47369	  0.31769	  0.92139	 -0.02330	  1.22691	707.64502	 23.20	
  8.510	-78.780	  1.19561	  0.67917	  0.52976	  0.30001	  0.93875	 -0.02244	  1.22325	707.61798	 23.20	
  8.500	-90.000	  1.19682	  0.61959	  0.59035	  0.29656	  0.94649	 -0.02262	  1.22514	707.56702	 23.20	
  8.510	-101.220	  1.19667	  0.55913	  0.65326	  0.30201	  0.94064	 -0.02304	  1.22506	707.60999	 23.20	
  8.492	-112.575	  1.19519	  0.50223	  0.71405	  0.31880	  0.91969	 -0.02094	  1.22384	707.56097	 23.20	
  8.487	-123.723	  1.19114	  0.45066	  0.76890	  0.34432	  0.88553	 -0.01941	  1.21962	707.63202	 23.20	
  8.495	-135.039	  1.19506	  0.40919	  0.82206	  0.38213	  0.84732	 -0.01896	  1.22345	707.60498	 23.20	
  8.494	-146.194	  1.19734	  0.37677	  0.86460	  0.42725	  0.79960	 -0.01894	  1.22563	707.61798	 23.20	
  8.502	-157.493	  1.19952	  0.35265	  0.89867	  0.47932	  0.74441	 -0.01813	  1.22712	707.67401	 23.20	
  8.491	-168.704	  1.19864	  0.33777	  0.91814	  0.53722	  0.68242	 -0.01784	  1.22623	707.66602	 23.20	
  8.500	180.000	  1.20114	  0.33393	  0.92636	  0.59885	  0.62200	 -0.01831	  1.22717	707.67102	 23.20	
 10.200	180.000	  1.17925	  0.25974	  0.97461	  0.58160	  0.60344	 -0.02676	  1.22571	707.64697	 23.20	
 10.191	-170.497	  1.17989	  0.26261	  0.97063	  0.51948	  0.66634	 -0.02671	  1.22699	707.71198	 23.20	
 10.210	-161.034	  1.17805	  0.27311	  0.95327	  0.46031	  0.72718	 -0.02768	  1.22648	707.57501	 23.20	
 10.194	-151.526	  1.17457	  0.29462	  0.92197	  0.40473	  0.78422	 -0.02795	  1.22316	707.62402	 23.20	
 10.190	-142.105	  1.17421	  0.32321	  0.88365	  0.35628	  0.83859	 -0.02703	  1.22290	707.59003	 23.20	
 10.215	-132.646	  1.17562	  0.35905	  0.84113	  0.31255	  0.88910	 -0.02655	  1.22450	707.55103	 23.20	
 10.203	-123.092	  1.17546	  0.40406	  0.78721	  0.27741	  0.93022	 -0.02727	  1.22457	707.51801	 23.20	
 10.192	-113.678	  1.17781	  0.45420	  0.73112	  0.25233	  0.96288	 -0.02969	  1.22739	707.61700	 23.20	
 10.208	-104.249	  1.17641	  0.50975	  0.66817	  0.23419	  0.98248	 -0.03110	  1.22470	707.62903	 23.20	
 10.210	-94.801	  1.17787	  0.56955	  0.60566	  0.22419	  0.99485	 -0.03239	  1.22610	707.58301	 23.20	
 10.210	-85.199	  1.17242	  0.62896	  0.53956	  0.22296	  0.98980	 -0.03290	  1.22080	707.57001	 23.20	
 10.208	-75.751	  1.17484	  0.69157	  0.48083	  0.23033	  0.98049	 -0.03241	  1.22253	707.53400	 23.20	
 10.192	-66.322	  1.17574	  0.75186	  0.42497	  0.24851	  0.95817	 -0.03324	  1.22229	707.59302	 23.20	
 10.203	-56.908	  1.17385	  0.80716	  0.37393	  0.27183	  0.92612	 -0.03191	  1.22085	707.60199	 23.20	
 10.215	-47.354	  1.17836	  0.86316	  0.32816	  0.30595	  0.88838	 -0.03163	  1.22474	707.63397	 23.20	
 10.190	-37.895	  1.17802	  0.90738	  0.29147	  0.34809	  0.83800	 -0.03039	  1.22302	707.52100	 23.20	
 10.194	-28.474	  1.17644	  0.94364	  0.25984	  0.39529	  0.78223	 -0.02996	  1.22078	707.59399	 23.20	
 10.210	-18.966	  1.18158	  0.97544	  0.23883	  0.44983	  0.72755	 -0.02908	  1.22628	707.58301	 23.20	
 10.191	 -9.503	  1.18003	  0.99028	  0.22751	  0.50858	  0.66418	 -0.02867	  1.22342	707.58600	 23.20	
 10.200	  0.000	  1.18162	  0.99808	  0.22325	  0.57095	  0.60173	 -0.02862	  1.22453	707.60699	 23.20	
 10.191	  9.503	  1.18168	  0.99435	  0.22599	  0.63299	  0.54081	 -0.02614	  1.22415	707.58197	 23.20	
 10.210	 18.966	  1.18210	  0.97956	  0.24019	  0.69566	  0.48310	 -0.02627	  1.22413	707.56201	 23.20	
 10.194	 28.474	  1.17980	  0.95162	  0.26237	  0.75480	  0.42779	 -0.02568	  1.22031	707.53400	 23.20	
 10.190	 37.895	  1.18669	  0.92224	  0.29385	  0.81425	  0.38312	 -0.02573	  1.22739	707.61499	 23.20	
 10.215	 47.354	  1.18637	  0.87718	  0.33206	  0.86519	  0.34113	 -0.02365	  1.22585	707.57397	 23.20	
 10.203	 56.908	  1.18534	  0.82513	  0.37671	  0.90749	  0.30616	 -0.02360	  1.22516	707.58197	 23.20	
 10.192	 66.322	  1.18458	  0.76945	  0.42736	  0.93796	  0.28218	 -0.02444	  1.22284	707.58197	 23.20	
 10.208	 75.751	  1.18390	  0.70967	  0.48342	  0.96119	  0.26472	 -0.02495	  1.22293	707.60101	 23.20	
 10.210	 85.199	  1.18369	  0.64806	  0.54379	  0.97286	  0.25652	 -0.02583	  1.22259	707.57800	 23.10	
 10.210	 94.801	  1.18497	  0.58568	  0.60835	  0.97577	  0.25609	 -0.02498	  1.22416	707.64001	 23.20	
 10.208	104.249	  1.18537	  0.52656	  0.67117	  0.96624	  0.26570	 -0.02571	  1.22563	707.67200	 23.10	
 10.192	113.678	  1.18415	  0.47002	  0.73196	  0.94436	  0.28307	 -0.02723	  1.22512	707.65802	 23.10	
 10.203	123.092	  1.18793	  0.42128	  0.79229	  0.91737	  0.30950	 -0.02657	  1.22959	707.67401	 23.10	
 10.215	132.646	  1.17857	  0.37259	  0.83981	  0.86957	  0.34198	 -0.02433	  1.22036	707.63202	 23.10	
 10.190	142.105	  1.17788	  0.33438	  0.88585	  0.82100	  0.38251	 -0.02425	  1.22111	707.61798	 23.10	
 10.194	151.526	  1.18011	  0.30402	  0.92379	  0.76771	  0.43063	 -0.02497	  1.22332	707.57800	 23.10	
 10.210	161.034	  1.17800	  0.28020	  0.95065	  0.70764	  0.48298	 -0.02629	  1.22265	707.64502	 23.10	
 10.191	170.497	  1.17853	  0.26629	  0.96823	  0.64519	  0.54143	 -0.02727	  1.22418	707.65802	 23.10	
 11.899	171.783	  1.15422	  0.19194	  1.01355	  0.62518	  0.52186	 -0.03604	  1.22427	707.64001	 23.10	
 11.890	163.610	  1.15595	  0.20418	  1.00133	  0.68869	  0.46348	 -0.03595	  1.22454	707.63098	 23.10	
 11.889	155.445	  1.15532	  0.22261	  0.97772	  0.74974	  0.40744	 -0.03498	  1.22388	707.61700	 23.10	
 11.909	147.299	  1.15432	  0.24956	  0.94359	  0.80741	  0.35606	 -0.03448	  1.22216	707.61798	 23.10	
 11.902	139.148	  1.15844	  0.28412	  0.90515	  0.86236	  0.31262	 -0.03363	  1.22506	707.49701	 23.10	
 11.894	130.867	  1.15870	  0.32408	  0.85677	  0.90945	  0.27310	 -0.03552	  1.22496	707.61298	 23.10	
 11.897	122.732	  1.16101	  0.37023	  0.80427	  0.95084	  0.24117	 -0.03698	  1.22565	707.52802	 23.10	
 11.903	114.597	  1.16085	  0.41979	  0.74548	  0.98195	  0.21466	 -0.03680	  1.22494	707.61499	 23.10	
 11.893	106.346	  1.16105	  0.47591	  0.68288	  1.00468	  0.19580	 -0.03590	  1.22389	707.65503	 23.10	
 11.892	 98.155	  1.15951	  0.53438	  0.61838	  1.01593	  0.18506	 -0.03530	  1.22095	707.62402	 23.10	
 11.900	 90.000	  1.16352	  0.59719	  0.55746	  1.02263	  0.18247	 -0.03534	  1.22531	707.64697	 23.10	
 11.892	 81.845	  1.16320	  0.65829	  0.49527	  1.01682	  0.18458	 -0.03579	  1.22463	707.64001	 23.10	
 11.893	 73.654	  1.16213	  0.71972	  0.43485	  1.00022	  0.19570	 -0.03487	  1.22365	707.59302	 23.10	
 11.903	 65.403	  1.16023	  0.77834	  0.37859	  0.97445	  0.21326	 -0.03410	  1.22164	707.65601	 23.10	
 11.897	 57.268	  1.16539	  0.83928	  0.32944	  0.94476	  0.24042	 -0.03321	  1.22695	707.59900	 23.10	
 11.894	 49.133	  1.16198	  0.88849	  0.28274	  0.90146	  0.27157	 -0.03383	  1.22440	707.56702	 23.10	
 11.902	 40.852	  1.16072	  0.93482	  0.24222	  0.85107	  0.31129	 -0.03396	  1.22290	707.54303	 23.10	
 11.909	 32.701	  1.15909	  0.97316	  0.20763	  0.79684	  0.35410	 -0.03537	  1.22255	707.62402	 23.10	
 11.889	 24.555	  1.15586	  0.99969	  0.18397	  0.73613	  0.40519	 -0.03557	  1.21873	707.62097	 23.10	
 11.890	 16.390	  1.16038	  1.02670	  0.16490	  0.67726	  0.46149	 -0.03642	  1.22405	707.54303	 23.10	
 11.899	  8.217	  1.15613	  1.03511	  0.15459	  0.61184	  0.51976	 -0.03674	  1.22028	707.56897	 23.10	
 11.900	  0.000	  1.15835	  1.04208	  0.14872	  0.55012	  0.58165	 -0.03703	  1.22383	707.54199	 23.10	
 11.899	 -8.217	  1.15481	  1.03271	  0.15409	  0.48742	  0.64286	 -0.03760	  1.21982	707.65002	 23.10	
 11.890	-16.390	  1.15577	  1.01909	  0.16526	  0.42857	  0.70620	 -0.03769	  1.22183	707.60199	 23.10	
 11.889	-24.555	  1.15350	  0.99307	  0.18297	  0.37299	  0.76478	 -0.03868	  1.21962	707.63898	 23.10	
 11.909	-32.701	  1.15414	  0.96206	  0.20797	  0.32310	  0.82241	 -0.03942	  1.22189	707.63098	 23.10	
 11.902	-40.852	  1.15611	  0.92356	  0.24035	  0.27719	  0.87738	 -0.03997	  1.22502	707.56598	 23.10	
 11.894	-49.133	  1.15233	  0.87288	  0.28066	  0.23939	  0.92165	 -0.04097	  1.22061	707.65601	 23.10	
 11.897	-57.268	  1.15564	  0.82278	  0.32609	  0.20760	  0.96443	 -0.04181	  1.22475	707.66699	 23.10	
 11.903	-65.403	  1.15184	  0.76291	  0.37658	  0.18213	  0.99388	 -0.04141	  1.22142	707.57800	 23.10	
 11.893	-73.654	  1.15321	  0.70481	  0.43251	  0.16526	  1.01799	 -0.04013	  1.22353	707.65802	 23.10	
 11.892	-81.845	  1.15262	  0.64108	  0.49210	  0.15315	  1.03383	 -0.04093	  1.22406	707.58502	 23.10	
 11.900	-90.000	  1.15498	  0.58040	  0.55460	  0.15012	  1.04172	 -0.04071	  1.22748	707.55298	 23.10	
 11.892	-98.155	  1.14869	  0.51739	  0.61414	  0.15372	  1.03178	 -0.04122	  1.22124	707.61298	 23.10	
 11.893	-106.346	  1.15066	  0.45954	  0.67931	  0.16616	  1.01977	 -0.04144	  1.22377	707.55103	 23.10	
 11.903	-114.597	  1.15252	  0.40617	  0.74092	  0.18504	  0.99874	 -0.03751	  1.22797	707.55298	 23.10	
 11.897	-122.732	  1.14953	  0.35490	  0.79584	  0.20946	  0.96483	 -0.03707	  1.22623	707.61798	 23.10	
 11.894	-130.867	  1.15207	  0.31055	  0.85320	  0.24392	  0.92643	 -0.03519	  1.22868	707.52100	 23.10	
 11.902	-139.148	  1.14877	  0.27158	  0.89915	  0.28512	  0.87598	 -0.03455	  1.22399	707.51202	 23.10	
 11.909	-147.299	  1.14867	  0.24006	  0.93958	  0.32993	  0.82410	 -0.03574	  1.22451	707.61700	 23.10	
 11.889	-155.445	  1.15017	  0.21719	  0.97325	  0.38230	  0.76726	 -0.03581	  1.22467	707.58301	 23.10	
 11.890	-163.610	  1.14957	  0.19968	  0.99627	  0.43853	  0.70613	 -0.03548	  1.22228	707.61499	 23.10	
 11.899	-171.783	  1.14757	  0.18887	  1.00928	  0.49753	  0.64302	 -0.03531	  1.22021	707.49298	 23.10	
 11.900	180.000	  1.15080	  0.18730	  1.01652	  0.56134	  0.58204	 -0.03528	  1.22230	707.58301	 23.10	
 13.600	180.000	  1.12102	  0.11267	  1.05808	  0.53806	  0.55750	 -0.04381	  1.22112	707.55103	 23.10	
 13.608	-172.853	  1.11983	  0.11491	  1.05264	  0.47591	  0.62026	 -0.04384	  1.22065	707.55298	 23.10	
 13.611	-165.583	  1.12160	  0.12376	  1.04191	  0.41615	  0.68427	 -0.04452	  1.22334	707.51001	 23.10	
 13.601	-158.353	  1.11695	  0.13838	  1.01719	  0.35820	  0.74331	 -0.04359	  1.21944	707.46399	 23.10	
 13.609	-151.210	  1.12015	  0.15785	  0.99085	  0.30537	  0.80399	 -0.04373	  1.22413	707.62097	 23.10	
 13.611	-143.999	  1.11568	  0.18442	  0.95144	  0.25511	  0.85654	 -0.04380	  1.21955	707.56201	 23.10	
 13.601	-136.825	  1.11821	  0.21815	  0.90985	  0.21239	  0.91014	 -0.04335	  1.22222	707.60498	 23.10	
 13.596	-129.640	  1.12119	  0.25882	  0.86153	  0.17587	  0.95749	 -0.04424	  1.22491	707.54303	 23.10	
