FileType=PCF
NHL=14
Date=10/23/18	16:17:19
Facility=APL
Serial=16328-5
Customer=NASA
NP=6
Mach=0.100000
Calibration=1:1
CalPts=490
TstPts=95
PortNumbering=AP Standard
Units=Torr C m/s kg/m^3 deg mm 
Theta[deg]	Phi[deg]	P1[Torr]	P2[Torr]	P3[Torr]	P4[Torr]	P5[Torr]	P6[Torr]	Pt[Torr]	Ps[Abs,Torr]	Ts[C]	
  0.000	  0.000	  4.97017	  2.65296	  2.53916	  2.53545	  2.63837	  0.03038	  4.96587	707.46899	 24.90	
  1.691	128.401	  4.96708	  2.50670	  2.67827	  2.71697	  2.44975	  0.02799	  4.96381	707.50403	 24.90	
  1.692	 77.194	  4.96221	  2.69495	  2.47812	  2.75506	  2.39880	  0.02681	  4.95890	707.50201	 24.90	
  1.699	 26.182	  4.96658	  2.85125	  2.32089	  2.63015	  2.51852	  0.02459	  4.96283	707.46399	 24.90	
  1.699	-26.182	  4.96239	  2.84697	  2.31209	  2.41841	  2.71952	  0.02195	  4.95844	707.34802	 24.90	
  1.692	-77.194	  4.95944	  2.67768	  2.46696	  2.29372	  2.84692	  0.02093	  4.95585	707.44202	 24.80	
  1.691	-128.401	  4.95259	  2.48377	  2.65985	  2.34917	  2.78495	  0.02251	  4.95055	707.40503	 24.90	
  1.700	180.000	  4.96570	  2.41378	  2.76728	  2.53208	  2.62929	  0.02922	  4.96185	707.41803	 24.80	
  3.400	180.000	  4.95143	  2.14872	  2.99792	  2.48849	  2.59777	  0.01482	  4.95506	707.43402	 24.90	
  3.388	-152.325	  4.96283	  2.19809	  2.93974	  2.27864	  2.82674	  0.01298	  4.96813	707.43701	 24.90	
  3.397	-124.529	  4.95403	  2.32822	  2.76908	  2.09743	  3.01287	  0.00767	  4.95968	707.44501	 24.90	
  3.399	-96.763	  4.95144	  2.54064	  2.54037	  2.01437	  3.09826	  0.00282	  4.95655	707.45001	 24.90	
  3.394	-69.283	  4.95027	  2.76983	  2.31413	  2.03072	  3.06844	  0.00161	  4.95645	707.47699	 24.90	
  3.400	-41.398	  4.94000	  2.97234	  2.11904	  2.15027	  2.91916	  0.00243	  4.94590	707.40002	 24.90	
  3.401	-14.021	  4.95521	  3.10058	  2.02597	  2.36029	  2.71090	  0.00564	  4.95889	707.41302	 24.90	
  3.401	 14.021	  4.95245	  3.10302	  2.02874	  2.60290	  2.46807	  0.00765	  4.95609	707.41498	 24.90	
  3.400	 41.398	  4.95509	  2.99669	  2.13107	  2.81539	  2.27176	  0.01084	  4.95715	707.34497	 24.90	
  3.394	 69.283	  4.94747	  2.79085	  2.31753	  2.95791	  2.15017	  0.01267	  4.94972	707.38898	 24.90	
  3.399	 96.763	  4.95453	  2.56172	  2.54739	  2.99401	  2.13488	  0.01336	  4.95552	707.32098	 24.90	
  3.397	124.529	  4.95026	  2.34772	  2.76626	  2.90940	  2.20864	  0.01493	  4.95176	707.41498	 24.90	
  3.388	152.325	  4.95711	  2.21179	  2.93189	  2.72963	  2.37732	  0.01500	  4.95933	707.34497	 24.90	
  5.099	161.165	  4.92719	  1.90112	  3.19599	  2.70622	  2.31600	 -0.00320	  4.95269	707.42401	 24.90	
  5.109	142.013	  4.91204	  2.00016	  3.06057	  2.92878	  2.09747	 -0.00409	  4.93552	707.31000	 24.90	
  5.095	123.033	  4.93010	  2.18547	  2.87277	  3.11287	  1.95337	 -0.00295	  4.95198	707.43402	 25.00	
  5.105	104.191	  4.93535	  2.40592	  2.63937	  3.22277	  1.86366	 -0.00516	  4.95640	707.36102	 25.00	
  5.093	 85.207	  4.93236	  2.65031	  2.38854	  3.23512	  1.84577	 -0.00747	  4.95255	707.43402	 25.00	
  5.104	 66.290	  4.92645	  2.88892	  2.14988	  3.16910	  1.88964	 -0.00587	  4.94819	707.42102	 25.00	
  5.094	 47.331	  4.93160	  3.10740	  1.95530	  3.02416	  2.01546	 -0.00516	  4.95368	707.38599	 25.00	
  5.089	 28.397	  4.93191	  3.26417	  1.81185	  2.81113	  2.20246	 -0.00800	  4.95547	707.33197	 24.90	
  5.096	  9.576	  4.92814	  3.34568	  1.73682	  2.56628	  2.42731	 -0.00831	  4.95262	707.35101	 24.90	
  5.096	 -9.576	  4.91994	  3.33442	  1.73186	  2.31045	  2.67402	 -0.01294	  4.94489	707.36700	 24.90	
  5.089	-28.397	  4.93394	  3.25892	  1.80338	  2.08525	  2.92461	 -0.01658	  4.96283	707.31897	 24.90	
  5.094	-47.331	  4.92681	  3.09214	  1.94125	  1.89339	  3.12852	 -0.01887	  4.95684	707.39899	 24.90	
  5.104	-66.290	  4.92468	  2.86742	  2.14290	  1.77347	  3.27181	 -0.02109	  4.95651	707.33698	 24.90	
  5.093	-85.207	  4.92221	  2.62193	  2.37838	  1.72202	  3.33403	 -0.02092	  4.95370	707.33698	 24.90	
  5.105	-104.191	  4.92913	  2.37878	  2.63654	  1.74236	  3.32283	 -0.01703	  4.96181	707.31799	 24.90	
  5.095	-123.033	  4.92980	  2.16362	  2.87213	  1.84441	  3.21242	 -0.01086	  4.96231	707.39203	 24.90	
  5.109	-142.013	  4.91655	  1.98907	  3.05991	  1.99632	  3.03133	 -0.00909	  4.94838	707.38599	 24.90	
  5.099	-161.165	  4.93411	  1.89430	  3.19890	  2.21857	  2.81218	 -0.00784	  4.96445	707.38098	 24.90	
  5.100	180.000	  4.93448	  1.85918	  3.24783	  2.46076	  2.56163	 -0.00469	  4.96227	707.37799	 24.90	
  6.800	180.000	  4.89305	  1.57103	  3.47798	  2.41991	  2.51572	 -0.03036	  4.96434	707.41602	 24.90	
  6.796	-166.229	  4.88611	  1.58717	  3.44379	  2.17130	  2.75926	 -0.03333	  4.95982	707.28699	 24.90	
  6.808	-152.311	  4.87582	  1.65339	  3.34436	  1.94028	  2.99315	 -0.03766	  4.95105	707.39099	 24.80	
  6.795	-138.383	  4.88360	  1.77928	  3.19642	  1.74754	  3.21258	 -0.03644	  4.96062	707.34497	 24.80	
  6.792	-124.591	  4.88389	  1.94560	  3.00120	  1.58785	  3.38820	 -0.03802	  4.96186	707.39398	 24.80	
  6.787	-110.754	  4.88069	  2.14969	  2.76923	  1.48263	  3.50556	 -0.04669	  4.95911	707.42102	 24.80	
  6.800	-96.985	  4.88435	  2.37915	  2.52575	  1.42467	  3.57102	 -0.05192	  4.96452	707.35602	 24.80	
  6.800	-83.015	  4.88513	  2.62729	  2.27396	  1.41810	  3.57280	 -0.05432	  4.96379	707.34900	 24.80	
  6.787	-69.246	  4.88023	  2.86919	  2.03442	  1.46880	  3.50101	 -0.05777	  4.95842	707.39697	 24.80	
  6.792	-55.409	  4.88959	  3.10436	  1.82594	  1.57252	  3.38177	 -0.05530	  4.96576	707.38397	 24.70	
  6.795	-41.617	  4.88206	  3.29522	  1.65138	  1.71951	  3.20159	 -0.05087	  4.95725	707.38599	 24.70	
  6.808	-27.689	  4.89571	  3.45855	  1.52579	  1.91169	  2.99818	 -0.04755	  4.96835	707.39398	 24.70	
  6.796	-13.771	  4.89550	  3.55621	  1.44575	  2.13881	  2.75853	 -0.04529	  4.96646	707.48798	 24.70	
  6.800	  0.000	  4.89189	  3.59072	  1.41888	  2.38440	  2.50430	 -0.04085	  4.96072	707.34003	 24.70	
  6.796	 13.771	  4.90300	  3.57195	  1.44839	  2.64119	  2.26721	 -0.03684	  4.97036	707.39899	 24.70	
  6.808	 27.689	  4.89887	  3.48125	  1.52815	  2.88191	  2.03996	 -0.03683	  4.96411	707.35602	 24.70	
  6.795	 41.617	  4.89853	  3.33055	  1.66014	  3.10196	  1.84932	 -0.03196	  4.96158	707.40802	 24.70	
  6.792	 55.409	  4.90135	  3.14196	  1.83669	  3.27768	  1.70422	 -0.02931	  4.96166	707.33197	 24.70	
  6.787	 69.246	  4.90503	  2.91735	  2.05062	  3.40809	  1.60724	 -0.03373	  4.96419	707.30200	 24.70	
  6.800	 83.015	  4.91443	  2.68379	  2.28744	  3.48568	  1.55602	 -0.03472	  4.97328	707.32599	 24.70	
  6.800	 96.985	  4.90850	  2.42867	  2.53801	  3.48096	  1.56360	 -0.03456	  4.96698	707.39697	 24.70	
  6.787	110.754	  4.90661	  2.20142	  2.77915	  3.41933	  1.61657	 -0.03447	  4.96514	707.42902	 24.70	
  6.792	124.591	  4.90829	  1.99363	  3.01119	  3.30190	  1.71729	 -0.03169	  4.96938	707.38397	 24.70	
  6.795	138.383	  4.89569	  1.81751	  3.19966	  3.12406	  1.86197	 -0.02729	  4.95919	707.42401	 24.70	
  6.808	152.311	  4.90352	  1.68775	  3.35936	  2.91395	  2.05679	 -0.02631	  4.96914	707.45001	 24.70	
  6.796	166.229	  4.89812	  1.60411	  3.44970	  2.67041	  2.27788	 -0.02879	  4.96534	707.45801	 24.70	
  8.491	168.704	  4.82778	  1.29193	  3.67326	  2.61437	  2.20553	 -0.06644	  4.95962	707.47998	 24.70	
  8.502	157.493	  4.84756	  1.35705	  3.61407	  2.87511	  1.97738	 -0.06551	  4.97727	707.49298	 24.70	
  8.494	146.194	  4.83246	  1.46723	  3.46813	  3.10096	  1.76179	 -0.06170	  4.95874	707.48499	 24.70	
  8.495	135.039	  4.83724	  1.61521	  3.29864	  3.31213	  1.58066	 -0.06463	  4.96293	707.47302	 24.70	
  8.487	123.723	  4.83529	  1.79372	  3.08752	  3.48053	  1.43602	 -0.07369	  4.95674	707.45599	 24.70	
  8.492	112.575	  4.84684	  2.00811	  2.85966	  3.61140	  1.33352	 -0.07596	  4.96494	707.46399	 24.70	
  8.510	101.220	  4.84769	  2.24798	  2.60131	  3.69120	  1.26328	 -0.07308	  4.96450	707.48901	 24.70	
  8.500	 90.000	  4.83967	  2.48714	  2.34399	  3.70777	  1.23836	 -0.07398	  4.95484	707.44000	 24.70	
  8.510	 78.780	  4.84610	  2.74502	  2.09780	  3.68115	  1.25955	 -0.07319	  4.96149	707.52100	 24.70	
  8.492	 67.425	  4.85286	  2.99774	  1.85965	  3.59826	  1.32801	 -0.06677	  4.96795	707.49597	 24.70	
  8.487	 56.277	  4.84779	  3.22271	  1.64858	  3.46340	  1.42832	 -0.05954	  4.96479	707.46399	 24.70	
  8.495	 44.961	  4.84842	  3.42863	  1.46434	  3.28728	  1.57361	 -0.06331	  4.96636	707.36700	 24.70	
  8.494	 33.806	  4.84052	  3.58962	  1.31387	  3.07333	  1.74925	 -0.07196	  4.96079	707.47198	 24.70	
  8.502	 22.507	  4.83980	  3.71636	  1.20175	  2.83507	  1.95955	 -0.07319	  4.96401	707.46503	 24.60	
  8.491	 11.296	  4.83458	  3.78418	  1.13654	  2.57900	  2.19507	 -0.07136	  4.96017	707.41602	 24.60	
  8.500	  0.000	  4.83612	  3.81218	  1.10857	  2.32164	  2.44534	 -0.07646	  4.96611	707.36499	 24.60	
  8.491	-11.296	  4.83405	  3.77800	  1.13076	  2.06470	  2.70474	 -0.08113	  4.96698	707.37598	 24.60	
  8.502	-22.507	  4.82795	  3.69243	  1.19151	  1.83433	  2.94427	 -0.08244	  4.96279	707.42297	 24.60	
  8.494	-33.806	  4.82586	  3.55844	  1.30304	  1.61510	  3.18145	 -0.08295	  4.96204	707.48102	 24.60	
  8.495	-44.961	  4.82322	  3.38481	  1.44640	  1.43619	  3.38616	 -0.08961	  4.96227	707.32703	 24.60	
  8.487	-56.277	  4.82852	  3.18100	  1.63353	  1.29694	  3.55758	 -0.09620	  4.96813	707.36902	 24.60	
  8.492	-67.425	  4.82431	  2.95008	  1.83951	  1.19264	  3.68332	 -0.09933	  4.96580	707.43103	 24.60	
  8.510	-78.780	  4.81630	  2.69255	  2.07634	  1.12316	  3.76524	 -0.09569	  4.96058	707.43201	 24.60	
  8.500	-90.000	  4.81661	  2.43843	  2.32893	  1.10587	  3.79445	 -0.09427	  4.96223	707.52802	 24.60	
  8.510	-101.220	  4.82631	  2.19731	  2.59257	  1.13191	  3.77532	 -0.09048	  4.97264	707.47198	 24.60	
  8.492	-112.575	  4.82095	  1.95832	  2.84510	  1.20445	  3.69195	 -0.08192	  4.96758	707.51501	 24.60	
  8.487	-123.723	  4.81684	  1.75365	  3.07570	  1.31556	  3.56025	 -0.07367	  4.96385	707.41803	 24.60	
  8.495	-135.039	  4.82340	  1.58078	  3.28695	  1.46734	  3.39761	 -0.06989	  4.96886	707.37500	 24.60	
  8.494	-146.194	  4.82759	  1.44138	  3.46428	  1.65024	  3.19669	 -0.07250	  4.97320	707.38599	 24.60	
  8.502	-157.493	  4.81446	  1.32914	  3.58868	  1.86212	  2.95393	 -0.07228	  4.95671	707.40002	 24.60	
  8.491	-168.704	  4.82518	  1.27833	  3.67328	  2.10559	  2.70804	 -0.06500	  4.96234	707.42102	 24.60	
  8.500	180.000	  4.83266	  1.26094	  3.70794	  2.36163	  2.45588	 -0.06475	  4.96756	707.46997	 24.60	
 10.200	180.000	  4.74618	  0.95306	  3.91015	  2.29102	  2.38076	 -0.10489	  4.96456	707.37299	 24.60	
 10.191	-170.497	  4.74680	  0.96227	  3.89052	  2.03656	  2.64071	 -0.10579	  4.96910	707.33502	 24.60	
 10.210	-161.034	  4.73405	  1.00925	  3.81503	  1.78183	  2.88868	 -0.11335	  4.96048	707.43103	 24.60	
 10.194	-151.526	  4.74231	  1.09473	  3.71025	  1.55774	  3.14112	 -0.11454	  4.97141	707.35901	 24.60	
 10.190	-142.105	  4.73535	  1.21628	  3.54838	  1.35505	  3.36327	 -0.10946	  4.96445	707.44598	 24.60	
 10.215	-132.646	  4.73935	  1.36650	  3.36713	  1.17861	  3.56660	 -0.10471	  4.97120	707.41803	 24.60	
 10.203	-123.092	  4.73329	  1.55036	  3.14293	  1.03120	  3.72891	 -0.10837	  4.96404	707.39398	 24.60	
 10.192	-113.678	  4.73604	  1.75695	  2.90653	  0.92807	  3.85192	 -0.11746	  4.96481	707.42902	 24.60	
 10.208	-104.249	  4.73310	  1.98575	  2.64880	  0.84329	  3.94634	 -0.12897	  4.96372	707.29498	 24.60	
 10.210	-94.801	  4.73950	  2.23101	  2.39493	  0.80607	  3.99145	 -0.13673	  4.96775	707.32599	 24.60	
 10.210	-85.199	  4.74173	  2.48776	  2.13628	  0.79797	  3.99419	 -0.14130	  4.97069	707.47998	 24.60	
 10.208	-75.751	  4.73804	  2.74338	  1.88193	  0.83409	  3.94248	 -0.14273	  4.96495	707.47198	 24.60	
 10.192	-66.322	  4.73505	  2.99137	  1.64650	  0.90609	  3.84483	 -0.13955	  4.95855	707.50500	 24.60	
 10.203	-56.908	  4.74054	  3.22884	  1.43460	  1.00477	  3.72317	 -0.13778	  4.96582	707.44000	 24.50	
 10.215	-47.354	  4.74670	  3.44768	  1.25064	  1.15153	  3.55319	 -0.13090	  4.96815	707.40802	 24.50	
 10.190	-37.895	  4.74412	  3.63469	  1.09033	  1.32260	  3.34742	 -0.12462	  4.96243	707.41602	 24.50	
 10.194	-28.474	  4.75011	  3.79223	  0.96480	  1.51937	  3.12961	 -0.12116	  4.96913	707.42102	 24.50	
 10.210	-18.966	  4.75037	  3.90477	  0.87464	  1.74494	  2.88296	 -0.11939	  4.96328	707.43402	 24.50	
 10.191	 -9.503	  4.75933	  3.98150	  0.82362	  1.98982	  2.63258	 -0.11900	  4.96977	707.46198	 24.50	
 10.200	  0.000	  4.74935	  4.00043	  0.80441	  2.24075	  2.36814	 -0.11489	  4.95751	707.51001	 24.50	
 10.191	  9.503	  4.75353	  3.98561	  0.82151	  2.49917	  2.12087	 -0.11375	  4.95805	707.40503	 24.50	
 10.210	 18.966	  4.76157	  3.93079	  0.87542	  2.76942	  1.87295	 -0.11281	  4.96520	707.47699	 24.50	
 10.194	 28.474	  4.75985	  3.82363	  0.96875	  3.01428	  1.65069	 -0.11174	  4.96050	707.41498	 24.50	
 10.190	 37.895	  4.77141	  3.68316	  1.09678	  3.25436	  1.45539	 -0.10782	  4.96861	707.44800	 24.50	
 10.215	 47.354	  4.76620	  3.50158	  1.25251	  3.45452	  1.28322	 -0.09921	  4.96178	707.49597	 24.50	
 10.203	 56.908	  4.76465	  3.28487	  1.44381	  3.62627	  1.14197	 -0.09812	  4.95748	707.41803	 24.50	
 10.192	 66.322	  4.76976	  3.05843	  1.65622	  3.76210	  1.04295	 -0.10554	  4.96036	707.49701	 24.50	
 10.208	 75.751	  4.76976	  2.81321	  1.88831	  3.85812	  0.97087	 -0.11168	  4.96007	707.44598	 24.50	
 10.210	 85.199	  4.77231	  2.55630	  2.14375	  3.90856	  0.93894	 -0.11669	  4.96174	707.42401	 24.50	
 10.210	 94.801	  4.78090	  2.30514	  2.40818	  3.92150	  0.94270	 -0.11708	  4.97236	707.46997	 24.50	
 10.208	104.249	  4.75935	  2.04835	  2.65672	  3.86751	  0.97268	 -0.11607	  4.95287	707.46100	 24.50	
 10.192	113.678	  4.76159	  1.81980	  2.90951	  3.78415	  1.04860	 -0.11712	  4.95915	707.40503	 24.50	
 10.203	123.092	  4.76814	  1.61104	  3.15558	  3.65850	  1.16127	 -0.11346	  4.96661	707.40503	 24.50	
 10.215	132.646	  4.75817	  1.41981	  3.36867	  3.49048	  1.29562	 -0.10493	  4.96229	707.50500	 24.50	
 10.190	142.105	  4.76121	  1.26014	  3.56326	  3.29107	  1.46733	 -0.09807	  4.96768	707.41498	 24.50	
 10.194	151.526	  4.75125	  1.13231	  3.70721	  3.06102	  1.66097	 -0.09888	  4.96102	707.48499	 24.50	
 10.210	161.034	  4.75077	  1.03640	  3.82275	  2.81125	  1.88576	 -0.10608	  4.96238	707.46899	 24.50	
 10.191	170.497	  4.75218	  0.98255	  3.88836	  2.55390	  2.12874	 -0.10736	  4.96565	707.38599	 24.50	
 11.899	171.783	  4.65224	  0.66872	  4.08453	  2.47446	  2.04406	 -0.14524	  4.96800	707.33698	 24.50	
 11.890	163.610	  4.64342	  0.71843	  4.01777	  2.72817	  1.79537	 -0.14468	  4.95535	707.52301	 24.50	
 11.889	155.445	  4.65578	  0.79746	  3.93197	  2.99022	  1.57314	 -0.14015	  4.96653	707.35303	 24.50	
 11.909	147.299	  4.65697	  0.90364	  3.80120	  3.22902	  1.36079	 -0.13703	  4.96697	707.39899	 24.50	
 11.902	139.148	  4.65489	  1.04125	  3.62910	  3.44906	  1.16751	 -0.13910	  4.96124	707.37500	 24.50	
 11.894	130.867	  4.66222	  1.21385	  3.42892	  3.64357	  1.01058	 -0.14705	  4.96101	707.37598	 24.50	
 11.897	122.732	  4.66824	  1.40546	  3.20850	  3.80944	  0.87783	 -0.15261	  4.96410	707.45398	 24.50	
 11.903	114.597	  4.67431	  1.61720	  2.97084	  3.94530	  0.76803	 -0.15810	  4.96684	707.45300	 24.50	
 11.893	106.346	  4.67776	  1.84716	  2.71302	  4.03895	  0.69410	 -0.16037	  4.96596	707.53400	 24.50	
 11.892	 98.155	  4.68776	  2.09962	  2.45313	  4.10115	  0.64802	 -0.16079	  4.97288	707.44000	 24.50	
 11.900	 90.000	  4.67812	  2.34571	  2.19044	  4.10318	  0.63222	 -0.15934	  4.96077	707.46997	 24.50	
 11.892	 81.845	  4.68690	  2.60439	  1.93722	  4.08665	  0.64670	 -0.15534	  4.96823	707.52802	 24.50	
 11.893	 73.654	  4.68100	  2.85957	  1.68681	  4.01644	  0.69167	 -0.14886	  4.96165	707.51801	 24.40	
 11.903	 65.403	  4.67989	  3.10671	  1.45604	  3.91407	  0.76439	 -0.14168	  4.96146	707.35101	 24.50	
 11.897	 57.268	  4.68214	  3.34041	  1.24855	  3.77724	  0.87406	 -0.13375	  4.96406	707.47302	 24.40	
 11.894	 49.133	  4.68473	  3.56078	  1.05546	  3.60883	  1.00574	 -0.13394	  4.96992	707.50201	 24.40	
 11.902	 40.852	  4.67780	  3.75083	  0.88663	  3.40443	  1.16620	 -0.14002	  4.96628	707.36499	 24.40	
 11.909	 32.701	  4.67248	  3.90563	  0.74904	  3.18002	  1.35107	 -0.14747	  4.96396	707.43701	 24.40	
 11.889	 24.555	  4.67451	  4.03153	  0.64552	  2.94377	  1.56229	 -0.15054	  4.96787	707.40198	 24.50	
 11.890	 16.390	  4.67712	  4.12943	  0.56493	  2.68617	  1.79406	 -0.15080	  4.97347	707.34100	 24.50	
 11.899	  8.217	  4.67511	  4.18618	  0.51249	  2.42509	  2.03763	 -0.15211	  4.97718	707.40503	 24.40	
 11.900	  0.000	  4.66749	  4.19434	  0.49748	  2.16120	  2.28801	 -0.15520	  4.97183	707.40198	 24.40	
 11.899	 -8.217	  4.65990	  4.16606	  0.51046	  1.90228	  2.54381	 -0.15510	  4.96758	707.49402	 24.40	
 11.890	-16.390	  4.66671	  4.10928	  0.55836	  1.65842	  2.80772	 -0.15493	  4.97726	707.41803	 24.40	
 11.889	-24.555	  4.65850	  4.00242	  0.63702	  1.42532	  3.05324	 -0.15539	  4.97213	707.36102	 24.40	
 11.909	-32.701	  4.65611	  3.87048	  0.74021	  1.21007	  3.29119	 -0.15503	  4.97263	707.39099	 24.40	
 11.902	-40.852	  4.66001	  3.70449	  0.87644	  1.02307	  3.51466	 -0.16141	  4.97942	707.39899	 24.40	
 11.894	-49.133	  4.64739	  3.49948	  1.03816	  0.86073	  3.70147	 -0.16898	  4.96841	707.46997	 24.40	
 11.897	-57.268	  4.65430	  3.28296	  1.23137	  0.73423	  3.86905	 -0.17327	  4.97661	707.46100	 24.40	
 11.903	-65.403	  4.64727	  3.03975	  1.44134	  0.62082	  4.00516	 -0.17755	  4.97345	707.45599	 24.30	
 11.893	-73.654	  4.63884	  2.78488	  1.67056	  0.55146	  4.09148	 -0.17893	  4.96595	707.42297	 24.30	
 11.892	-81.845	  4.64469	  2.52964	  1.92256	  0.50703	  4.15948	 -0.17759	  4.97380	707.37500	 24.30	
 11.900	-90.000	  4.64218	  2.27408	  2.17398	  0.49238	  4.18025	 -0.17893	  4.97427	707.38898	 24.30	
 11.892	-98.155	  4.64403	  2.02524	  2.43446	  0.51341	  4.16383	 -0.17229	  4.97576	707.34302	 24.30	
 11.893	-106.346	  4.63739	  1.77758	  2.69920	  0.56015	  4.10309	 -0.16254	  4.97115	707.38898	 24.30	
 11.903	-114.597	  4.63320	  1.54731	  2.95273	  0.64084	  4.00607	 -0.15214	  4.96807	707.33502	 24.30	
 11.897	-122.732	  4.63918	  1.34709	  3.19328	  0.75402	  3.87915	 -0.14153	  4.97337	707.34003	 24.30	
 11.894	-130.867	  4.63959	  1.16457	  3.41615	  0.89093	  3.71838	 -0.13825	  4.97520	707.39697	 24.30	
 11.902	-139.148	  4.62691	  0.99649	  3.61224	  1.05589	  3.51226	 -0.14347	  4.96168	707.39697	 24.30	
 11.909	-147.299	  4.62743	  0.86566	  3.78065	  1.24580	  3.29674	 -0.14841	  4.96170	707.37299	 24.30	
 11.889	-155.445	  4.64496	  0.77100	  3.92321	  1.47161	  3.06616	 -0.15476	  4.97427	707.44598	 24.30	
 11.890	-163.610	  4.65060	  0.70391	  4.02062	  1.70823	  2.81602	 -0.15242	  4.97466	707.32898	 24.20	
 11.899	-171.783	  4.66059	  0.65831	  4.09518	  1.95744	  2.56374	 -0.14852	  4.98570	707.38599	 24.20	
 11.900	180.000	  4.64447	  0.64613	  4.09832	  2.21221	  2.29362	 -0.14796	  4.96279	707.40802	 24.20	
 13.600	180.000	  4.53654	  0.34131	  4.28377	  2.11938	  2.20353	 -0.18215	  4.97757	707.38098	 24.20	
 13.608	-172.853	  4.52782	  0.34198	  4.26433	  1.85844	  2.45904	 -0.18382	  4.97402	707.37201	 24.20	
 13.611	-165.583	  4.53613	  0.37732	  4.21945	  1.61163	  2.72797	 -0.19076	  4.98721	707.33398	 24.20	
 13.601	-158.353	  4.52241	  0.44067	  4.11950	  1.37093	  2.97254	 -0.19068	  4.97317	707.35101	 24.20	
 13.609	-151.210	  4.52281	  0.52543	  4.00384	  1.14528	  3.22297	 -0.18771	  4.98096	707.40698	 24.20	
 13.611	-143.999	  4.51746	  0.63933	  3.84682	  0.93977	  3.45165	 -0.18169	  4.97594	707.28900	 24.20	
 13.601	-136.825	  4.52032	  0.78144	  3.66763	  0.76093	  3.66497	 -0.17665	  4.97911	707.45599	 24.20	
 13.596	-129.640	  4.51953	  0.94032	  3.46475	  0.59971	  3.85214	 -0.16959	  4.97968	707.36401	 24.10	
