FileType=PCF
NHL=14
Date=10/23/18	15:40:42
Facility=APL
Serial=16328-5
Customer=NASA
NP=6
Mach=0.150000
Calibration=1:1
CalPts=490
TstPts=95
PortNumbering=AP Standard
Units=Torr C m/s kg/m^3 deg mm 
Theta[deg]	Phi[deg]	P1[Torr]	P2[Torr]	P3[Torr]	P4[Torr]	P5[Torr]	P6[Torr]	Pt[Torr]	Ps[Abs,Torr]	Ts[C]	
  0.000	  0.000	 11.30623	  5.97113	  5.68471	  5.67269	  5.92842	  0.07308	 11.28635	707.49701	 26.70	
  1.691	128.401	 11.27185	  5.59593	  6.01370	  6.10878	  5.45180	  0.06992	 11.25508	707.47198	 26.70	
  1.692	 77.194	 11.27302	  6.07370	  5.52874	  6.22183	  5.34396	  0.06803	 11.25738	707.46503	 26.70	
  1.699	 26.182	 11.26619	  6.45219	  5.14202	  5.90971	  5.63208	  0.06197	 11.24875	707.41602	 26.70	
  1.699	-26.182	 11.28264	  6.45577	  5.15068	  5.40629	  6.14220	  0.05632	 11.26407	707.46899	 26.70	
  1.692	-77.194	 11.28438	  6.06682	  5.52889	  5.10664	  6.45174	  0.05831	 11.26617	707.47198	 26.70	
  1.691	-128.401	 11.27404	  5.58972	  6.00617	  5.21014	  6.34397	  0.06139	 11.25804	707.42603	 26.60	
  1.700	180.000	 11.27283	  5.38111	  6.23290	  5.66256	  5.89028	  0.06671	 11.25959	707.51202	 26.70	
  3.400	180.000	 11.25442	  4.77848	  6.79452	  5.61913	  5.85278	  0.04953	 11.25695	707.54498	 26.60	
  3.388	-152.325	 11.25785	  4.90484	  6.64753	  5.09420	  6.38946	  0.04298	 11.26094	707.53900	 26.70	
  3.397	-124.529	 11.25477	  5.23656	  6.27087	  4.69643	  6.79864	  0.03060	 11.25892	707.46198	 26.70	
  3.399	-96.763	 11.24211	  5.73636	  5.71640	  4.49277	  7.00417	  0.01798	 11.24780	707.49402	 26.70	
  3.394	-69.283	 11.24566	  6.27336	  5.18778	  4.53516	  6.94007	  0.00908	 11.25085	707.47699	 26.70	
  3.400	-41.398	 11.25617	  6.74839	  4.76097	  4.85337	  6.60785	  0.01903	 11.26023	707.45398	 26.70	
  3.401	-14.021	 11.26465	  7.03191	  4.52360	  5.32620	  6.11776	  0.03003	 11.26799	707.37299	 26.70	
  3.401	 14.021	 11.26591	  7.05115	  4.51586	  5.87924	  5.56587	  0.03760	 11.26593	707.45300	 26.70	
  3.400	 41.398	 11.26015	  6.79351	  4.75111	  6.38367	  5.09014	  0.03924	 11.26055	707.37799	 26.70	
  3.394	 69.283	 11.25924	  6.32897	  5.19493	  6.71323	  4.80254	  0.04520	 11.25519	707.43701	 26.70	
  3.399	 96.763	 11.25307	  5.78148	  5.73565	  6.77713	  4.73972	  0.03831	 11.24841	707.43402	 26.70	
  3.397	124.529	 11.24655	  5.28155	  6.24539	  6.58468	  4.91980	  0.04196	 11.24489	707.39203	 26.70	
  3.388	152.325	 11.25100	  4.92238	  6.64405	  6.16098	  5.32545	  0.04863	 11.24737	707.38898	 26.70	
  5.099	161.165	 11.20107	  4.24980	  7.22640	  6.11428	  5.21190	  0.00211	 11.24992	707.44598	 26.70	
  5.109	142.013	 11.21011	  4.49451	  6.95953	  6.64240	  4.72528	 -0.00050	 11.25899	707.48798	 26.70	
  5.095	123.033	 11.21504	  4.91215	  6.49264	  7.06250	  4.35630	 -0.00142	 11.25985	707.43201	 26.70	
  5.105	104.191	 11.21664	  5.41708	  5.94690	  7.30314	  4.14664	 -0.00552	 11.25744	707.46100	 26.70	
  5.093	 85.207	 11.20987	  5.98177	  5.37090	  7.33455	  4.09832	 -0.00613	 11.25095	707.42902	 26.70	
  5.104	 66.290	 11.23158	  6.55798	  4.83353	  7.19656	  4.23057	 -0.00536	 11.27404	707.44000	 26.70	
  5.094	 47.331	 11.21498	  7.03501	  4.37570	  6.84659	  4.50688	 -0.00501	 11.25951	707.42297	 26.70	
  5.089	 28.397	 11.23267	  7.41218	  4.04797	  6.36295	  4.95528	 -0.00940	 11.27795	707.37299	 26.60	
  5.096	  9.576	 11.20873	  7.58562	  3.86925	  5.79237	  5.46459	 -0.01373	 11.25569	707.46198	 26.60	
  5.096	 -9.576	 11.22461	  7.58510	  3.86955	  5.21908	  6.05323	 -0.02457	 11.27822	707.51300	 26.60	
  5.089	-28.397	 11.19048	  7.36826	  4.01861	  4.67906	  6.58205	 -0.03302	 11.24777	707.46100	 26.60	
  5.094	-47.331	 11.19852	  6.99718	  4.35121	  4.25053	  7.06428	 -0.03929	 11.26255	707.43103	 26.60	
  5.104	-66.290	 11.20021	  6.49656	  4.80740	  3.95927	  7.40452	 -0.04626	 11.26572	707.47803	 26.60	
  5.093	-85.207	 11.20734	  5.92731	  5.36825	  3.84534	  7.56452	 -0.04049	 11.27395	707.47302	 26.60	
  5.105	-104.191	 11.19684	  5.36985	  5.93710	  3.89653	  7.50117	 -0.03090	 11.26274	707.51202	 26.60	
  5.095	-123.033	 11.19396	  4.86025	  6.48049	  4.11307	  7.26122	 -0.01898	 11.25857	707.44000	 26.60	
  5.109	-142.013	 11.20416	  4.47656	  6.93393	  4.47409	  6.87632	 -0.01125	 11.26878	707.46100	 26.60	
  5.099	-161.165	 11.20012	  4.22689	  7.22993	  4.98580	  6.33031	 -0.00486	 11.25832	707.39203	 26.60	
  5.100	180.000	 11.19551	  4.15752	  7.32575	  5.53146	  5.77291	  0.00115	 11.25100	707.44000	 26.60	
  6.800	180.000	 11.09629	  3.49740	  7.85386	  5.44086	  5.65410	 -0.06476	 11.24832	707.47302	 26.60	
  6.796	-166.229	 11.11776	  3.55001	  7.79916	  4.89594	  6.22685	 -0.06970	 11.27378	707.48602	 26.60	
  6.808	-152.311	 11.10548	  3.70628	  7.58135	  4.36255	  6.77364	 -0.07702	 11.26839	707.41602	 26.60	
  6.795	-138.383	 11.10609	  3.99354	  7.23634	  3.91646	  7.25516	 -0.07781	 11.27088	707.50000	 26.60	
  6.792	-124.591	 11.08099	  4.35691	  6.77914	  3.55525	  7.63397	 -0.08546	 11.25138	707.45801	 26.70	
  6.787	-110.754	 11.10307	  4.84643	  6.25294	  3.31430	  7.92972	 -0.10058	 11.27301	707.46899	 26.70	
  6.800	-96.985	 11.10312	  5.36865	  5.69011	  3.17012	  8.08177	 -0.11425	 11.27835	707.49402	 26.70	
  6.800	-83.015	 11.08563	  5.92629	  5.10718	  3.14931	  8.06693	 -0.12374	 11.25726	707.46899	 26.60	
  6.787	-69.246	 11.11352	  6.50355	  4.58024	  3.28387	  7.92064	 -0.13071	 11.28336	707.47803	 26.60	
  6.792	-55.409	 11.10256	  7.01986	  4.08422	  3.50952	  7.63405	 -0.12846	 11.26931	707.40698	 26.60	
  6.795	-41.617	 11.11012	  7.46839	  3.69053	  3.85095	  7.24487	 -0.11479	 11.27446	707.43799	 26.60	
  6.808	-27.689	 11.11523	  7.82929	  3.38953	  4.28850	  6.75914	 -0.10394	 11.27707	707.41602	 26.60	
  6.796	-13.771	 11.13508	  8.05972	  3.21957	  4.83356	  6.20429	 -0.09766	 11.29202	707.36102	 26.60	
  6.800	  0.000	 11.10167	  8.11838	  3.14599	  5.37190	  5.62764	 -0.08807	 11.25421	707.54199	 26.60	
  6.796	 13.771	 11.11073	  8.06385	  3.21319	  5.94786	  5.07343	 -0.07921	 11.25943	707.44598	 26.60	
  6.808	 27.689	 11.11463	  7.86976	  3.39287	  6.50114	  4.56403	 -0.07870	 11.25862	707.61499	 26.60	
  6.795	 41.617	 11.13557	  7.54133	  3.70445	  7.02011	  4.12680	 -0.07121	 11.27353	707.58600	 26.60	
  6.792	 55.409	 11.13092	  7.10689	  4.10015	  7.41247	  3.79425	 -0.06347	 11.26429	707.53900	 26.60	
  6.787	 69.246	 11.13695	  6.59000	  4.59142	  7.70881	  3.56405	 -0.07390	 11.26800	707.46503	 26.60	
  6.800	 83.015	 11.12994	  6.03998	  5.11795	  7.85346	  3.45262	 -0.08056	 11.25663	707.51001	 26.60	
  6.800	 96.985	 11.12502	  5.46894	  5.69310	  7.85543	  3.46028	 -0.07339	 11.25012	707.49402	 26.60	
  6.787	110.754	 11.14712	  4.94427	  6.26528	  7.73636	  3.59684	 -0.07327	 11.27794	707.56598	 26.60	
  6.792	124.591	 11.11163	  4.44324	  6.77975	  7.44558	  3.81064	 -0.07254	 11.24976	707.46100	 26.60	
  6.795	138.383	 11.11255	  4.05738	  7.22307	  7.05103	  4.16034	 -0.06151	 11.25029	707.48901	 26.60	
  6.808	152.311	 11.11990	  3.75798	  7.58183	  6.57046	  4.60150	 -0.06019	 11.26411	707.45801	 26.60	
  6.796	166.229	 11.12613	  3.57191	  7.80655	  6.02426	  5.11654	 -0.06522	 11.27405	707.52899	 26.60	
  8.491	168.704	 10.96901	  2.86431	  8.31083	  5.90120	  4.95241	 -0.15061	 11.26057	707.49298	 26.60	
  8.502	157.493	 10.96933	  3.01735	  8.13444	  6.47449	  4.41555	 -0.14416	 11.25665	707.52802	 26.60	
  8.494	146.194	 10.98200	  3.26898	  7.84592	  7.01750	  3.93741	 -0.13606	 11.26681	707.48901	 26.60	
  8.495	135.039	 10.98644	  3.60312	  7.45940	  7.48513	  3.52954	 -0.14511	 11.26499	707.52600	 26.60	
  8.487	123.723	 10.99618	  4.01945	  6.98973	  7.87406	  3.19713	 -0.16278	 11.26644	707.52600	 26.60	
  8.492	112.575	 11.00103	  4.50649	  6.44768	  8.16660	  2.95455	 -0.17178	 11.26747	707.51300	 26.60	
  8.510	101.220	 11.01285	  5.05655	  5.86368	  8.35426	  2.79571	 -0.16736	 11.27740	707.45398	 26.60	
  8.500	 90.000	 11.01306	  5.61914	  5.28325	  8.40531	  2.73982	 -0.17175	 11.27554	707.48102	 26.60	
  8.510	 78.780	 11.02082	  6.20133	  4.71024	  8.33560	  2.78992	 -0.17031	 11.27877	707.52301	 26.60	
  8.492	 67.425	 11.00980	  6.76312	  4.15657	  8.13587	  2.93250	 -0.16003	 11.27012	707.52002	 26.60	
  8.487	 56.277	 10.99751	  7.27626	  3.67022	  7.82018	  3.16759	 -0.14301	 11.25806	707.51300	 26.50	
  8.495	 44.961	 10.99947	  7.73967	  3.24974	  7.42674	  3.49337	 -0.14671	 11.26595	707.49597	 26.50	
  8.494	 33.806	 11.00181	  8.12815	  2.91040	  6.96118	  3.88821	 -0.16011	 11.27532	707.57001	 26.50	
  8.502	 22.507	 10.99597	  8.41367	  2.65023	  6.40503	  4.38306	 -0.16410	 11.27520	707.46503	 26.50	
  8.491	 11.296	 10.99178	  8.57925	  2.49737	  5.82637	  4.92505	 -0.16138	 11.27566	707.53699	 26.50	
  8.500	  0.000	 10.98253	  8.62901	  2.43767	  5.23862	  5.48918	 -0.17242	 11.27463	707.54199	 26.50	
  8.491	-11.296	 10.98217	  8.56375	  2.49178	  4.63943	  6.08610	 -0.18245	 11.27814	707.38098	 26.50	
  8.502	-22.507	 10.95828	  8.35995	  2.63074	  4.09655	  6.63467	 -0.18810	 11.25796	707.52899	 26.50	
  8.494	-33.806	 10.96121	  8.05929	  2.87844	  3.61489	  7.16726	 -0.19375	 11.26433	707.42297	 26.50	
  8.495	-44.961	 10.95453	  7.66196	  3.21176	  3.19752	  7.63590	 -0.21117	 11.26180	707.49402	 26.50	
  8.487	-56.277	 10.95051	  7.18337	  3.63256	  2.86354	  8.03303	 -0.22453	 11.26254	707.49298	 26.50	
  8.492	-67.425	 10.95009	  6.65978	  4.11572	  2.61132	  8.33488	 -0.23297	 11.26799	707.50500	 26.50	
  8.510	-78.780	 10.92852	  6.07203	  4.65498	  2.45881	  8.50899	 -0.23119	 11.24814	707.46503	 26.50	
  8.500	-90.000	 10.94811	  5.49644	  5.24917	  2.44367	  8.57529	 -0.21711	 11.26731	707.41602	 26.50	
  8.510	-101.220	 10.94229	  4.93192	  5.82798	  2.48902	  8.52934	 -0.20449	 11.26856	707.46503	 26.50	
  8.492	-112.575	 10.93330	  4.39130	  6.40555	  2.65820	  8.33603	 -0.18452	 11.25369	707.45801	 26.50	
  8.487	-123.723	 10.94504	  3.92485	  6.94828	  2.91448	  8.05989	 -0.16097	 11.26788	707.50800	 26.50	
  8.495	-135.039	 10.95465	  3.52705	  7.42917	  3.26164	  7.68125	 -0.15507	 11.27388	707.48798	 26.50	
  8.494	-146.194	 10.95531	  3.20827	  7.82185	  3.68709	  7.20922	 -0.16161	 11.27026	707.53900	 26.50	
  8.502	-157.493	 10.97439	  2.96184	  8.14599	  4.19003	  6.68741	 -0.16119	 11.28935	707.53101	 26.50	
  8.491	-168.704	 10.95098	  2.83090	  8.30244	  4.72806	  6.10069	 -0.15145	 11.25602	707.44501	 26.50	
  8.500	180.000	 10.96325	  2.79366	  8.37737	  5.31787	  5.51305	 -0.14885	 11.26344	707.44800	 26.50	
 10.200	180.000	 10.76969	  2.07895	  8.84978	  5.15576	  5.34455	 -0.24484	 11.26125	707.46198	 26.50	
 10.191	-170.497	 10.79293	  2.12677	  8.80682	  4.57636	  5.95665	 -0.24451	 11.28854	707.45599	 26.50	
 10.210	-161.034	 10.76050	  2.21872	  8.64304	  3.99230	  6.53028	 -0.25670	 11.26822	707.48798	 26.50	
 10.194	-151.526	 10.76635	  2.42651	  8.38425	  3.48514	  7.08434	 -0.25380	 11.27335	707.45001	 26.50	
 10.190	-142.105	 10.75555	  2.69127	  8.03446	  3.01850	  7.58938	 -0.24542	 11.26871	707.48499	 26.50	
 10.215	-132.646	 10.75666	  3.03907	  7.60704	  2.60766	  8.05462	 -0.23605	 11.27582	707.45001	 26.50	
 10.203	-123.092	 10.75140	  3.45743	  7.10124	  2.26699	  8.43686	 -0.24636	 11.26994	707.48102	 26.40	
 10.192	-113.678	 10.74296	  3.92604	  6.55721	  2.01788	  8.71291	 -0.26725	 11.25949	707.41602	 26.40	
 10.208	-104.249	 10.75756	  4.46618	  5.97468	  1.84233	  8.92719	 -0.29065	 11.27107	707.37598	 26.40	
 10.210	-94.801	 10.75192	  5.01650	  5.38248	  1.74172	  9.02379	 -0.31041	 11.26547	707.49701	 26.40	
 10.210	-85.199	 10.75031	  5.59959	  4.78318	  1.72270	  9.02730	 -0.32393	 11.26311	707.42102	 26.40	
 10.208	-75.751	 10.76561	  6.20339	  4.20820	  1.81326	  8.91708	 -0.33131	 11.27268	707.53400	 26.40	
 10.192	-66.322	 10.76995	  6.77106	  3.67536	  1.97929	  8.70921	 -0.33434	 11.27455	707.45801	 26.50	
 10.203	-56.908	 10.76278	  7.30103	  3.18110	  2.20946	  8.40650	 -0.32568	 11.26572	707.48798	 26.40	
 10.215	-47.354	 10.77443	  7.81402	  2.73328	  2.53450	  8.02137	 -0.30865	 11.27379	707.40698	 26.40	
 10.190	-37.895	 10.79242	  8.24399	  2.38782	  2.93097	  7.57617	 -0.28904	 11.28412	707.51501	 26.40	
 10.194	-28.474	 10.78769	  8.58603	  2.11147	  3.39708	  7.04566	 -0.27374	 11.27166	707.52802	 26.40	
 10.210	-18.966	 10.79678	  8.85204	  1.90499	  3.90949	  6.49432	 -0.27191	 11.27821	707.44000	 26.40	
 10.191	 -9.503	 10.80337	  9.01730	  1.78209	  4.46053	  5.92302	 -0.27295	 11.28101	707.49298	 26.40	
 10.200	  0.000	 10.79464	  9.07058	  1.74263	  5.05034	  5.32287	 -0.26388	 11.26218	707.49298	 26.40	
 10.191	  9.503	 10.80858	  9.04138	  1.78409	  5.65619	  4.74404	 -0.25551	 11.27497	707.48102	 26.40	
 10.210	 18.966	 10.79392	  8.89203	  1.89650	  6.23889	  4.18022	 -0.25642	 11.25475	707.46100	 26.40	
 10.194	 28.474	 10.82449	  8.66635	  2.12246	  6.81718	  3.68136	 -0.25513	 11.27827	707.41302	 26.40	
 10.190	 37.895	 10.82877	  8.33817	  2.40792	  7.33315	  3.24059	 -0.24400	 11.27294	707.48602	 26.40	
 10.215	 47.354	 10.82555	  7.92475	  2.76300	  7.81148	  2.83231	 -0.22710	 11.26874	707.42102	 26.40	
 10.203	 56.908	 10.83720	  7.44494	  3.20637	  8.20710	  2.52264	 -0.22632	 11.27105	707.50000	 26.40	
 10.192	 66.322	 10.82742	  6.91059	  3.68829	  8.50818	  2.28549	 -0.24764	 11.25885	707.50201	 26.40	
 10.208	 75.751	 10.84583	  6.35774	  4.23536	  8.74745	  2.11799	 -0.26600	 11.27820	707.46997	 26.40	
 10.210	 85.199	 10.84706	  5.77443	  4.80509	  8.86475	  2.04032	 -0.27262	 11.28169	707.50800	 26.40	
 10.210	 94.801	 10.84014	  5.18005	  5.40027	  8.86917	  2.04994	 -0.27389	 11.27426	707.42297	 26.40	
 10.208	104.249	 10.83158	  4.60640	  5.99582	  8.77375	  2.13125	 -0.27428	 11.27265	707.47803	 26.40	
 10.192	113.678	 10.84169	  4.08737	  6.58289	  8.58483	  2.29858	 -0.27107	 11.28582	707.48102	 26.40	
 10.203	123.092	 10.82830	  3.58773	  7.12916	  8.29250	  2.54091	 -0.25934	 11.28373	707.55103	 26.40	
 10.215	132.646	 10.79828	  3.14766	  7.61318	  7.88059	  2.87036	 -0.23984	 11.25761	707.52002	 26.40	
 10.190	142.105	 10.80025	  2.79275	  8.04461	  7.42892	  3.25919	 -0.22423	 11.26528	707.47699	 26.40	
 10.194	151.526	 10.81399	  2.50394	  8.40225	  6.92279	  3.72223	 -0.22631	 11.28506	707.42902	 26.40	
 10.210	161.034	 10.80370	  2.28273	  8.65457	  6.35694	  4.22882	 -0.23824	 11.27917	707.53497	 26.40	
 10.191	170.497	 10.79333	  2.15690	  8.79653	  5.76495	  4.77583	 -0.24281	 11.26826	707.48102	 26.30	
 11.899	171.783	 10.55317	  1.43418	  9.24553	  5.57654	  4.57322	 -0.33937	 11.26974	707.48602	 26.30	
 11.890	163.610	 10.57303	  1.55807	  9.11751	  6.18460	  4.02268	 -0.32648	 11.28224	707.49597	 26.30	
 11.889	155.445	 10.58134	  1.73630	  8.90762	  6.76118	  3.50419	 -0.31878	 11.28724	707.52002	 26.30	
 11.909	147.299	 10.57465	  1.97626	  8.60194	  7.29965	  3.01527	 -0.31298	 11.27718	707.45801	 26.30	
 11.902	139.148	 10.59547	  2.29861	  8.22729	  7.81124	  2.59249	 -0.32023	 11.29089	707.46899	 26.30	
 11.894	130.867	 10.59850	  2.69272	  7.75555	  8.25981	  2.21526	 -0.33650	 11.28053	707.47803	 26.30	
 11.897	122.732	 10.60937	  3.12391	  7.25298	  8.63951	  1.90524	 -0.35409	 11.28489	707.55298	 26.30	
 11.903	114.597	 10.60912	  3.59868	  6.70832	  8.93563	  1.65142	 -0.36877	 11.27859	707.55298	 26.20	
 11.893	106.346	 10.61838	  4.14007	  6.11463	  9.14236	  1.49054	 -0.37873	 11.27340	707.52600	 26.20	
 11.892	 98.155	 10.64000	  4.71158	  5.52482	  9.26729	  1.40105	 -0.37765	 11.28198	707.47998	 26.20	
 11.900	 90.000	 10.65243	  5.29444	  4.92819	  9.32551	  1.34628	 -0.37743	 11.29650	707.48602	 26.20	
 11.892	 81.845	 10.65319	  5.88363	  4.34081	  9.27177	  1.37406	 -0.37256	 11.29905	707.39398	 26.20	
 11.893	 73.654	 10.63718	  6.46373	  3.76743	  9.09686	  1.48431	 -0.35191	 11.27473	707.46503	 26.20	
 11.903	 65.403	 10.64374	  7.03122	  3.23355	  8.88577	  1.64030	 -0.33353	 11.28816	707.42401	 26.20	
 11.897	 57.268	 10.62478	  7.55500	  2.74405	  8.55135	  1.88378	 -0.31349	 11.26991	707.51202	 26.20	
 11.894	 49.133	 10.63817	  8.05751	  2.30577	  8.17407	  2.19398	 -0.30853	 11.28876	707.43701	 26.10	
 11.902	 40.852	 10.61920	  8.48469	  1.92322	  7.69999	  2.56917	 -0.32154	 11.27520	707.51300	 26.10	
 11.909	 32.701	 10.62155	  8.85917	  1.61183	  7.19711	  2.98826	 -0.34090	 11.28724	707.51001	 26.10	
 11.889	 24.555	 10.61337	  9.13431	  1.37725	  6.64018	  3.47539	 -0.34906	 11.27838	707.50800	 26.10	
 11.890	 16.390	 10.59964	  9.33788	  1.19626	  6.06147	  3.98769	 -0.35109	 11.27530	707.42297	 26.10	
 11.899	  8.217	 10.57942	  9.45283	  1.08079	  5.44482	  4.54430	 -0.35081	 11.26189	707.42902	 26.10	
 11.900	  0.000	 10.58138	  9.49151	  1.04438	  4.84537	  5.12837	 -0.35599	 11.26938	707.45300	 26.20	
 11.899	 -8.217	 10.58311	  9.44066	  1.07792	  4.26153	  5.71749	 -0.36175	 11.28069	707.48102	 26.20	
 11.890	-16.390	 10.56627	  9.29261	  1.17788	  3.69231	  6.29753	 -0.36122	 11.26939	707.39203	 26.20	
 11.889	-24.555	 10.55304	  9.04818	  1.35418	  3.16299	  6.86616	 -0.36242	 11.26043	707.43402	 26.20	
 11.909	-32.701	 10.54368	  8.74524	  1.58349	  2.68138	  7.39534	 -0.36423	 11.25630	707.39203	 26.20	
 11.902	-40.852	 10.54884	  8.37444	  1.87829	  2.24731	  7.90692	 -0.37717	 11.27023	707.51501	 26.20	
 11.894	-49.133	 10.54115	  7.91383	  2.25607	  1.87288	  8.35253	 -0.39372	 11.26506	707.38397	 26.20	
 11.897	-57.268	 10.54554	  7.41194	  2.69850	  1.56580	  8.73641	 -0.41142	 11.27190	707.49402	 26.20	
 11.903	-65.403	 10.53095	  6.86909	  3.17179	  1.32593	  9.03294	 -0.41778	 11.26398	707.35901	 26.20	
 11.893	-73.654	 10.52408	  6.28578	  3.72150	  1.15829	  9.25054	 -0.42146	 11.25749	707.44000	 26.30	
 11.892	-81.845	 10.51966	  5.69290	  4.29184	  1.05602	  9.39108	 -0.41819	 11.25813	707.36700	 26.30	
 11.900	-90.000	 10.50432	  5.10498	  4.86212	  1.01493	  9.44296	 -0.41245	 11.24863	707.49298	 26.30	
 11.892	-98.155	 10.51738	  4.53601	  5.46861	  1.06459	  9.41032	 -0.39662	 11.26441	707.40198	 26.30	
 11.893	-106.346	 10.50208	  3.96745	  6.07190	  1.18583	  9.26180	 -0.37263	 11.25041	707.37201	 26.30	
 11.903	-114.597	 10.51601	  3.46088	  6.65730	  1.36644	  9.06434	 -0.34661	 11.26836	707.44501	 26.30	
 11.897	-122.732	 10.51219	  2.98774	  7.20363	  1.62230	  8.76667	 -0.32716	 11.26248	707.49298	 26.30	
 11.894	-130.867	 10.51273	  2.56878	  7.71371	  1.94850	  8.38873	 -0.32143	 11.26591	707.46399	 26.30	
 11.902	-139.148	 10.51952	  2.19843	  8.18040	  2.32522	  7.95771	 -0.32999	 11.27374	707.53497	 26.30	
 11.909	-147.299	 10.50254	  1.89473	  8.54952	  2.76311	  7.44871	 -0.34450	 11.25225	707.44598	 26.30	
 11.889	-155.445	 10.53759	  1.68099	  8.87158	  3.27899	  6.91790	 -0.35099	 11.27855	707.43201	 26.30	
 11.890	-163.610	 10.53020	  1.50017	  9.10090	  3.80286	  6.34464	 -0.35040	 11.27012	707.42603	 26.30	
 11.899	-171.783	 10.53725	  1.40458	  9.24249	  4.37083	  5.75318	 -0.34476	 11.26804	707.56097	 26.30	
 11.900	180.000	 10.55201	  1.39012	  9.28753	  4.97665	  5.16143	 -0.34252	 11.27091	707.48499	 26.30	
 13.600	180.000	 10.29912	  0.69048	  9.70440	  4.77072	  4.94419	 -0.42964	 11.29559	707.56097	 26.30	
 13.608	-172.853	 10.28046	  0.69893	  9.65567	  4.17087	  5.53506	 -0.43219	 11.28724	707.45801	 26.30	
 13.611	-165.583	 10.24230	  0.77090	  9.51651	  3.57825	  6.10752	 -0.44012	 11.26004	707.46100	 26.30	
 13.601	-158.353	 10.24004	  0.91728	  9.30724	  3.04242	  6.69253	 -0.44011	 11.25917	707.49298	 26.30	
 13.609	-151.210	 10.23630	  1.12078	  9.03147	  2.53453	  7.25448	 -0.43490	 11.26311	707.48602	 26.30	
 13.611	-143.999	 10.20131	  1.36216	  8.67045	  2.05624	  7.75459	 -0.42216	 11.23281	707.40802	 26.30	
 13.601	-136.825	 10.24460	  1.68609	  8.29086	  1.65071	  8.27278	 -0.40761	 11.28088	707.39398	 26.30	
 13.596	-129.640	 10.22238	  2.05973	  7.80306	  1.28612	  8.67800	 -0.39505	 11.25183	707.34497	 26.30	
