FileType=PCF
NHL=14
Date=03/11/19	11:22:51
Facility=APL
Serial=16071-5
Customer=NASA
NP=6
Mach=0.380000
Calibration=1:1
CalPts=490
TstPts=95
PortNumbering=AP Standard
Units=Torr C m/s kg/m^3 deg mm 
Theta[deg]	Phi[deg]	P1[Torr]	P2[Torr]	P3[Torr]	P4[Torr]	P5[Torr]	P6[Torr]	Pt[Torr]	Ps[Abs,Torr]	Ts[C]	
  0.000	  0.000	 67.16752	 29.07677	 29.36400	 30.69180	 27.38306	  1.46290	 67.03979	711.06000	 28.90	
  1.691	128.401	 67.10372	 26.30851	 31.50345	 33.35082	 24.51199	  1.37839	 67.04655	711.25000	 28.90	
  1.692	 77.194	 67.15467	 29.66604	 28.47311	 34.17575	 23.77979	  1.46944	 67.07520	711.13000	 29.00	
  1.699	 26.182	 67.20325	 32.27399	 26.06656	 32.32010	 25.65740	  1.52011	 67.10658	711.71002	 29.00	
  1.699	-26.182	 67.20270	 32.42366	 26.05757	 29.19769	 28.90648	  1.47979	 67.07541	711.06000	 29.10	
  1.692	-77.194	 67.23155	 30.01180	 28.64451	 27.26927	 31.03859	  1.38316	 67.10343	711.06000	 29.10	
  1.691	-128.401	 67.21177	 26.63134	 31.60627	 27.84158	 30.33724	  1.32687	 67.10252	711.10999	 29.10	
  1.700	180.000	 67.17444	 25.10045	 32.91745	 30.50945	 27.37643	  1.30571	 67.09443	711.00000	 29.20	
  3.400	180.000	 67.03840	 21.23476	 36.38666	 30.15696	 27.16711	  1.04578	 67.10779	711.09998	 29.20	
  3.388	-152.325	 67.12033	 22.25569	 35.58425	 26.94558	 30.69200	  1.04500	 67.12324	711.13000	 29.30	
  3.397	-124.529	 67.14442	 24.66052	 33.29640	 24.44574	 33.53618	  1.08007	 67.09316	711.09998	 29.30	
  3.399	-96.763	 67.19334	 28.20160	 30.12004	 23.36942	 34.84639	  1.13951	 67.12743	711.82001	 29.30	
  3.394	-69.283	 67.19836	 31.75746	 26.69515	 23.81983	 34.33958	  1.22032	 67.11703	711.14001	 29.40	
  3.400	-41.398	 67.21120	 34.57578	 23.68551	 25.85164	 32.13202	  1.33094	 67.14133	711.34998	 29.40	
  3.401	-14.021	 67.17688	 36.06528	 22.01245	 28.87130	 28.75640	  1.41725	 67.12222	711.02002	 29.50	
  3.401	 14.021	 67.15683	 35.90807	 22.00659	 32.32595	 25.20966	  1.46389	 67.14684	711.69000	 29.50	
  3.400	 41.398	 67.12278	 34.14171	 23.60154	 35.43456	 22.17349	  1.44836	 67.18990	710.96002	 29.60	
  3.394	 69.283	 67.03088	 31.06999	 26.42275	 37.42217	 20.17417	  1.37037	 67.13589	711.03003	 29.60	
  3.399	 96.763	 66.97040	 27.25719	 29.78795	 37.74717	 19.78842	  1.26528	 67.11113	711.03003	 29.70	
  3.397	124.529	 66.99828	 24.06187	 33.16528	 36.37644	 21.12944	  1.17886	 67.15622	711.09998	 29.70	
  3.388	152.325	 67.01476	 21.89666	 35.52721	 33.55106	 23.82218	  1.08238	 67.15109	711.83002	 29.70	
  5.099	161.165	 66.61735	 17.69578	 39.14914	 33.12670	 23.25780	  0.68424	 67.16199	711.84003	 29.80	
  5.109	142.013	 66.56373	 19.16688	 37.33538	 36.53027	 19.98178	  0.74144	 67.17537	711.09998	 29.80	
  5.095	123.033	 66.52569	 21.65089	 34.53126	 39.12568	 17.46000	  0.84840	 67.15372	711.08002	 29.80	
  5.105	104.191	 66.56852	 24.84056	 31.18303	 40.74541	 15.97704	  0.92824	 67.18154	711.51001	 29.90	
  5.093	 85.207	 66.59721	 28.64608	 27.58662	 41.12463	 15.65589	  1.03996	 67.15906	711.71997	 29.90	
  5.104	 66.290	 66.63709	 32.37826	 24.13214	 40.33387	 16.40413	  1.12837	 67.15601	711.81000	 29.90	
  5.094	 47.331	 66.71912	 35.55206	 21.15402	 38.37075	 18.36906	  1.20083	 67.17967	711.35999	 30.00	
  5.089	 28.397	 66.82433	 37.93233	 19.09400	 35.50785	 21.25944	  1.25946	 67.21189	710.97998	 30.00	
  5.096	  9.576	 66.89860	 39.32464	 18.03686	 32.07836	 24.67056	  1.25346	 67.19495	711.04999	 30.10	
  5.096	 -9.576	 66.99197	 39.52137	 18.13497	 28.59245	 28.27204	  1.21057	 67.20792	710.98999	 30.10	
  5.089	-28.397	 67.04448	 38.42775	 19.36225	 25.24752	 31.97251	  1.13046	 67.19209	711.07001	 30.10	
  5.094	-47.331	 67.10030	 36.31071	 21.43306	 22.40153	 35.13552	  1.03732	 67.22897	711.06000	 30.20	
  5.104	-66.290	 67.08254	 33.38760	 24.44108	 20.40089	 37.43033	  0.93192	 67.19697	710.96002	 30.20	
  5.093	-85.207	 67.07253	 29.85069	 27.92829	 19.61214	 38.36435	  0.83972	 67.20267	711.04999	 30.20	
  5.105	-104.191	 67.06755	 25.90329	 31.52339	 19.75593	 38.14660	  0.76841	 67.21886	710.95001	 30.30	
  5.095	-123.033	 66.99550	 22.54995	 34.77751	 21.00586	 36.51400	  0.70880	 67.21063	710.90997	 30.30	
  5.109	-142.013	 66.92885	 19.84929	 37.50093	 23.25484	 33.91586	  0.67218	 67.21073	711.03003	 30.30	
  5.099	-161.165	 66.86768	 18.07070	 39.29137	 26.35089	 30.40803	  0.63818	 67.21754	710.94000	 30.40	
  5.100	180.000	 66.76444	 17.32769	 39.83145	 29.70505	 26.77359	  0.66607	 67.19563	710.91998	 30.40	
  6.800	180.000	 66.14055	 13.38651	 43.13637	 28.98265	 26.18367	  0.18512	 67.17876	711.06000	 30.40	
  6.796	-166.229	 66.25700	 13.92159	 42.80952	 25.68056	 29.73736	  0.15936	 67.21375	711.00000	 30.40	
  6.808	-152.311	 66.34823	 15.20229	 41.45504	 22.49525	 33.36226	  0.17973	 67.22250	711.03998	 30.50	
  6.795	-138.383	 66.46910	 17.21241	 39.31425	 19.80704	 36.48410	  0.21654	 67.25948	711.00000	 30.50	
  6.792	-124.591	 66.52689	 19.84019	 36.58287	 17.74352	 39.03259	  0.23840	 67.23161	711.12000	 30.60	
  6.787	-110.754	 66.60362	 22.98552	 33.43187	 16.31973	 40.70796	  0.28387	 67.24052	711.07001	 30.60	
  6.800	-96.985	 66.65297	 26.41056	 30.04402	 15.59858	 41.60176	  0.32843	 67.25308	711.09003	 30.60	
  6.800	-83.015	 66.69806	 30.29083	 26.50596	 15.63384	 41.58922	  0.38312	 67.27380	711.14001	 30.60	
  6.787	-69.246	 66.64324	 33.73909	 23.06717	 16.42960	 40.61894	  0.46400	 67.19289	711.10999	 30.60	
  6.792	-55.409	 66.67923	 36.84353	 20.02871	 18.03080	 38.91660	  0.57901	 67.24944	711.06000	 30.70	
  6.795	-41.617	 66.66574	 39.46464	 17.64987	 20.30123	 36.25777	  0.62605	 67.25675	711.17999	 30.70	
  6.808	-27.689	 66.62707	 41.46552	 15.60887	 23.20132	 33.03647	  0.73576	 67.24840	711.15002	 30.70	
  6.796	-13.771	 66.56295	 42.30165	 14.47651	 26.46963	 29.39906	  0.83382	 67.25283	711.09998	 30.70	
  6.800	  0.000	 66.48267	 42.57745	 14.01335	 29.83077	 25.87485	  0.87877	 67.26099	711.06000	 30.80	
  6.796	 13.771	 66.41430	 41.96439	 14.38024	 33.21553	 22.37163	  0.91501	 67.30052	711.00000	 30.80	
  6.808	 27.689	 66.27804	 40.76730	 15.51074	 36.60230	 18.92209	  0.91286	 67.27665	711.10999	 30.80	
  6.795	 41.617	 66.19582	 38.45030	 17.36044	 39.53266	 16.12728	  0.86630	 67.26471	711.09998	 30.80	
  6.792	 55.409	 66.17017	 35.70517	 19.79954	 41.87458	 14.07224	  0.78888	 67.30260	711.15002	 30.90	
  6.787	 69.246	 66.07029	 32.38186	 22.79808	 43.50046	 12.63625	  0.71629	 67.23792	711.10999	 30.90	
  6.800	 83.015	 66.07082	 28.53671	 26.17381	 44.37033	 11.87455	  0.64100	 67.28554	711.09003	 30.90	
  6.800	 96.985	 65.99742	 24.91338	 29.69834	 44.29380	 11.81512	  0.51751	 67.28073	711.02002	 31.00	
  6.787	110.754	 65.98632	 21.64388	 33.13945	 43.26831	 12.66229	  0.45772	 67.28999	711.04999	 31.00	
  6.792	124.591	 65.95311	 18.67829	 36.35115	 41.43707	 14.15756	  0.38670	 67.27453	711.08002	 31.00	
  6.795	138.383	 65.97295	 16.33362	 38.97838	 38.95983	 16.29994	  0.31159	 67.27661	711.08002	 31.10	
  6.808	152.311	 66.03329	 14.60517	 41.27945	 35.85384	 19.28901	  0.23075	 67.26938	711.10999	 31.10	
  6.796	166.229	 66.13579	 13.66081	 42.69057	 32.42171	 22.71685	  0.11038	 67.29202	711.15997	 31.10	
  8.491	168.704	 65.25212	  9.65017	 45.88043	 31.64297	 21.73220	 -0.66929	 67.27566	711.01001	 31.10	
  8.502	157.493	 65.18696	 10.46892	 44.71962	 35.12107	 18.16772	 -0.55598	 67.31416	711.06000	 31.10	
  8.494	146.194	 65.07202	 11.83014	 42.77575	 38.44183	 15.12887	 -0.25725	 67.24832	711.15997	 31.10	
  8.495	135.039	 65.03308	 13.73226	 40.27691	 41.37782	 12.64734	 -0.27622	 67.24712	711.16998	 31.20	
  8.487	123.723	 65.02695	 16.15596	 37.37090	 43.91041	 10.55595	 -0.11875	 67.27786	711.02002	 31.20	
  8.492	112.575	 65.02133	 18.96306	 34.20809	 45.78004	  9.07472	 -0.40173	 67.27818	711.14001	 31.20	
  8.510	101.220	 65.08166	 22.24530	 30.70693	 46.99611	  8.11242	  0.01058	 67.29755	711.15002	 31.20	
  8.500	 90.000	 65.11999	 25.74918	 27.13308	 47.39109	  7.84792	  0.06375	 67.25687	711.10999	 31.30	
  8.510	 78.780	 65.15899	 29.52089	 23.60168	 47.10860	  8.17795	  0.19952	 67.23573	711.13000	 31.30	
  8.492	 67.425	 65.26326	 33.36211	 20.29609	 46.06338	  9.16705	  0.28037	 67.28493	711.16998	 31.30	
  8.487	 56.277	 65.30948	 36.66684	 17.36968	 44.29934	 10.65764	  0.35036	 67.28038	711.09003	 31.30	
  8.495	 44.961	 65.36784	 39.61086	 14.86406	 41.90168	 12.71525	  0.42668	 67.26070	711.09003	 31.30	
  8.494	 33.806	 65.45375	 42.14455	 12.85700	 39.15676	 15.16171	  0.51254	 67.28317	711.09003	 31.30	
  8.502	 22.507	 65.51349	 43.84540	 11.28962	 35.91094	 18.05953	  0.36878	 67.26414	711.10999	 31.30	
  8.491	 11.296	 65.65314	 45.16462	 10.40300	 32.48900	 21.50409	  0.51150	 67.29895	711.15002	 31.30	
  8.500	  0.000	 65.75525	 45.76529	 10.05418	 29.03033	 25.18272	  0.46284	 67.30120	711.06000	 31.40	
  8.491	-11.296	 65.84077	 45.53745	 10.44687	 25.61645	 28.75931	  0.41013	 67.26815	710.94000	 31.40	
  8.502	-22.507	 65.93147	 44.59265	 11.42365	 22.31991	 32.39947	  0.29362	 67.27334	711.06000	 31.40	
  8.494	-33.806	 66.02140	 42.84752	 12.97694	 19.30379	 35.85794	  0.08341	 67.29860	711.03003	 31.40	
  8.495	-44.961	 66.01926	 40.84878	 14.98244	 16.68572	 38.90062	  0.07048	 67.28306	711.09003	 31.40	
  8.487	-56.277	 66.04775	 38.11462	 17.63184	 14.60604	 41.38953	  0.02006	 67.28888	711.04999	 31.40	
  8.492	-67.425	 66.04261	 35.00714	 20.60520	 12.96148	 43.23332	 -0.07645	 67.29739	711.04999	 31.40	
  8.510	-78.780	 66.01679	 31.48024	 23.95764	 11.86140	 43.99709	 -0.15590	 67.28720	711.03003	 31.50	
  8.500	-90.000	 66.00193	 27.56376	 27.56069	 11.54435	 44.37144	 -0.19496	 67.31242	711.09003	 31.50	
  8.510	-101.220	 65.93930	 24.00624	 31.10938	 11.80984	 43.98283	 -0.25832	 67.28527	711.03003	 31.50	
  8.492	-112.575	 65.89640	 20.50583	 34.56465	 12.72286	 43.30287	 -0.30275	 67.28856	710.96002	 31.50	
  8.487	-123.723	 65.80500	 17.44870	 37.71720	 14.18616	 41.53328	 -0.38744	 67.24681	711.33002	 31.50	
  8.495	-135.039	 65.77146	 14.83395	 40.64634	 16.08141	 39.13981	 -0.46093	 67.29242	711.06000	 31.50	
  8.494	-146.194	 65.66090	 12.69414	 43.07793	 18.51761	 36.13342	 -0.48718	 67.28241	710.97998	 31.50	
  8.502	-157.493	 65.54196	 11.00319	 44.94567	 21.48222	 32.65772	 -0.39156	 67.25997	711.02002	 31.60	
  8.491	-168.704	 65.44711	  9.95216	 46.03646	 24.76355	 28.95501	 -0.41217	 67.26138	711.09998	 31.60	
  8.500	180.000	 65.37232	  9.43545	 46.40213	 28.18125	 25.37457	 -0.37595	 67.29144	711.06000	 31.60	
 10.200	180.000	 64.21996	  5.42654	 49.25051	 27.14443	 24.31046	 -1.18905	 67.25527	711.09998	 31.60	
 10.191	-170.497	 64.39861	  5.90723	 49.00853	 23.70546	 28.05133	 -1.20697	 67.32790	711.06000	 31.60	
 10.210	-161.034	 64.46059	  6.80124	 48.08622	 20.28257	 31.79943	 -1.31363	 67.27718	711.03998	 31.60	
 10.194	-151.526	 64.58819	  8.26304	 46.55517	 17.19590	 35.46228	 -1.19629	 67.30668	711.07001	 31.60	
 10.190	-142.105	 64.69594	 10.08148	 44.40923	 14.64486	 38.57298	 -1.10271	 67.30152	710.97998	 31.70	
 10.215	-132.646	 64.76577	 12.32655	 41.75209	 12.19732	 41.58528	 -1.12437	 67.30220	711.02002	 31.70	
 10.203	-123.092	 64.83082	 15.06272	 38.66113	 10.26283	 43.91659	 -1.12079	 67.28923	711.04999	 31.70	
 10.192	-113.678	 64.87427	 18.06466	 35.40888	  8.93310	 45.38848	 -0.90996	 67.24576	711.09003	 31.70	
 10.208	-104.249	 64.92368	 21.31511	 32.01162	  8.04906	 46.70464	 -0.82292	 67.25104	711.15002	 31.70	
 10.210	-94.801	 64.98807	 24.93038	 28.42058	  7.68666	 47.34427	 -0.84247	 67.26939	711.09003	 31.70	
 10.210	-85.199	 65.05476	 28.66899	 24.67820	  7.77326	 47.36271	 -0.74904	 67.30004	711.07001	 31.70	
 10.208	-75.751	 65.05109	 32.59033	 21.20069	  8.22617	 46.64487	 -0.91443	 67.27488	711.09003	 31.70	
 10.192	-66.322	 65.09499	 36.06676	 17.91120	  9.29533	 45.27719	 -0.88649	 67.27615	711.12000	 31.70	
 10.203	-56.908	 65.16518	 39.24175	 14.98696	 10.91490	 43.74115	 -0.77866	 67.31766	710.96997	 31.80	
 10.215	-47.354	 65.11612	 42.06525	 12.34181	 12.93369	 41.35467	 -0.71328	 67.28677	711.09998	 31.80	
 10.190	-37.895	 65.13456	 44.36626	 10.20172	 15.54480	 38.24776	 -0.65743	 67.33972	711.08002	 31.80	
 10.194	-28.474	 65.06245	 46.34828	  8.48064	 18.23227	 35.05541	 -0.41141	 67.29572	711.03998	 31.80	
 10.210	-18.966	 64.94509	 47.75250	  7.15899	 21.41767	 31.39893	 -0.24605	 67.26910	711.01001	 31.80	
 10.191	 -9.503	 64.87971	 48.50400	  6.48738	 24.90202	 27.69228	 -0.13813	 67.30880	711.04999	 31.80	
 10.200	  0.000	 64.71364	 48.60491	  6.14117	 28.36774	 23.90641	 -0.12887	 67.26268	711.06000	 31.80	
 10.191	  9.503	 64.62055	 48.10866	  6.37328	 31.87934	 20.18999	 -0.00939	 67.29903	711.09003	 31.80	
 10.210	 18.966	 64.50140	 47.00118	  7.13207	 35.31902	 16.84787	 -0.13045	 67.30470	711.03998	 31.90	
 10.194	 28.474	 64.37572	 45.19604	  8.41605	 38.69068	 13.78557	 -0.04757	 67.27962	710.97998	 31.90	
 10.190	 37.895	 64.30238	 43.06467	 10.08656	 41.78758	 11.07290	 -0.07021	 67.28546	711.02002	 31.90	
 10.215	 47.354	 64.20276	 40.41208	 12.13751	 44.58213	  8.63518	 -0.23566	 67.30017	710.92999	 31.90	
 10.203	 56.908	 64.14845	 37.36243	 14.68350	 46.86822	  6.71989	 -0.86555	 67.29927	711.03998	 31.90	
 10.192	 66.322	 64.07137	 33.97305	 17.54759	 48.52078	  6.40506	 -0.96336	 67.27591	710.96997	 31.90	
 10.208	 75.751	 64.02501	 30.24726	 20.80532	 49.70468	  5.40248	 -0.56903	 67.26871	711.04999	 31.90	
 10.210	 85.199	 63.97923	 26.43211	 24.21970	 50.24863	  4.96557	 -0.53686	 67.26459	711.12000	 32.00	
 10.210	 94.801	 63.93800	 22.83711	 27.94942	 50.20265	  4.88043	 -1.12052	 67.30383	711.12000	 32.00	
 10.208	104.249	 63.86494	 19.36938	 31.62196	 49.46984	  5.30533	 -0.63800	 67.30025	711.00000	 32.00	
 10.192	113.678	 63.84166	 16.22902	 35.03496	 48.13582	  6.30175	 -1.15111	 67.26676	711.01001	 32.00	
 10.203	123.092	 63.86725	 13.39734	 38.27082	 46.29590	  7.66660	 -0.82748	 67.29122	711.01001	 32.00	
 10.215	132.646	 63.88754	 10.97294	 41.38689	 43.83142	  8.71538	 -0.97224	 67.29368	711.10999	 32.00	
 10.190	142.105	 63.92723	  8.96742	 44.07470	 40.89310	 11.10748	 -1.26826	 67.30003	711.08002	 32.10	
 10.194	151.526	 63.96010	  7.34922	 46.21074	 37.69422	 13.82459	 -1.38978	 67.28392	711.04999	 32.10	
 10.210	161.034	 64.03451	  6.15818	 47.83044	 34.26780	 16.91974	 -1.38578	 67.27029	710.97998	 32.10	
 10.191	170.497	 64.13382	  5.59407	 48.81103	 30.74865	 20.43252	 -1.33812	 67.25797	711.01001	 32.10	
 11.899	171.783	 62.76494	  1.41113	 51.54882	 29.57671	 19.32974	 -1.86181	 67.27320	711.01001	 32.10	
 11.890	163.610	 62.68035	  2.01193	 50.65330	 33.12608	 15.82752	 -1.92647	 67.27162	711.06000	 32.20	
 11.889	155.445	 62.59171	  3.03121	 49.24454	 36.51496	 12.66635	 -1.97795	 67.24961	711.01001	 32.20	
 11.909	147.299	 62.51764	  4.34302	 47.39954	 39.89079	  9.72218	 -1.99039	 67.25187	711.07001	 32.20	
 11.902	139.148	 62.47174	  5.99345	 45.06609	 43.07252	  8.14129	 -1.92897	 67.27205	711.14001	 32.20	
 11.894	130.867	 62.46189	  8.12201	 42.17859	 45.91198	  6.00005	 -1.84404	 67.28077	711.04999	 32.20	
 11.897	122.732	 62.52014	 10.63615	 39.05011	 48.23132	  4.35041	 -1.84957	 67.29291	711.02002	 32.20	
 11.903	114.597	 62.44465	 13.39583	 35.75121	 50.11869	  2.92635	 -1.88974	 67.24944	711.04999	 32.20	
 11.893	106.346	 62.46939	 16.52341	 32.29001	 51.58818	  1.86641	 -1.96359	 67.26688	710.96002	 32.30	
 11.892	 98.155	 62.50590	 19.91936	 28.55792	 52.54243	  1.16326	 -1.39319	 67.26891	711.13000	 32.30	
 11.900	 90.000	 62.55239	 23.37658	 24.81950	 52.94699	  0.95529	 -1.79149	 67.25088	711.10999	 32.30	
 11.892	 81.845	 62.62715	 26.92001	 21.43353	 52.73783	  1.24951	 -1.67635	 67.24732	711.08002	 32.30	
 11.893	 73.654	 62.63264	 30.74878	 17.88177	 51.99762	  1.83674	 -1.63642	 67.24372	711.06000	 32.30	
 11.903	 65.403	 62.66091	 34.53516	 14.71998	 50.74937	  2.62180	 -1.64714	 67.25629	711.07001	 32.30	
 11.897	 57.268	 62.73117	 37.91179	 11.89812	 49.00127	  4.15066	 -1.66586	 67.28395	711.03003	 32.30	
 11.894	 49.133	 62.75271	 41.00058	  9.33627	 46.81837	  5.89018	 -1.54609	 67.24619	711.03003	 32.30	
 11.902	 40.852	 62.84750	 43.71988	  7.16067	 44.07821	  8.14169	 -1.20217	 67.24527	711.15997	 32.30	
 11.909	 32.701	 62.96035	 46.31604	  5.43701	 41.00998	 10.67415	 -1.14240	 67.23170	711.06000	 32.30	
 11.889	 24.555	 63.11702	 48.33864	  4.16283	 37.72622	 12.57726	 -1.11887	 67.26714	711.03003	 32.30	
 11.890	 16.390	 63.20672	 49.83127	  3.11669	 34.26290	 15.72446	 -1.15666	 67.23847	710.94000	 32.30	
 11.899	  8.217	 63.32373	 50.85057	  2.40008	 30.78568	 19.11702	 -1.12883	 67.23379	711.00000	 32.40	
 11.900	  0.000	 63.44880	 51.32425	  2.10810	 27.25421	 22.65470	 -1.09761	 67.24242	711.09003	 32.40	
 11.899	 -8.217	 63.56548	 51.24416	  2.31430	 23.68386	 26.51987	 -0.93366	 67.23127	711.01001	 32.40	
 11.890	-16.390	 63.68055	 50.55638	  3.02351	 20.16977	 30.32537	 -1.17175	 67.22510	711.06000	 32.40	
 11.889	-24.555	 63.78978	 49.41590	  4.05740	 16.98706	 34.02185	 -1.19437	 67.24940	711.02002	 32.40	
 11.909	-32.701	 63.83093	 47.78263	  5.41509	 14.07510	 37.44711	 -1.39344	 67.25426	711.00000	 32.40	
 11.902	-40.852	 63.90253	 45.57827	  7.33760	 11.46252	 40.62484	 -1.37822	 67.25359	710.96997	 32.40	
 11.894	-49.133	 63.91158	 43.09669	  9.67984	  9.27053	 43.43228	 -1.35692	 67.23728	710.85999	 32.40	
 11.897	-57.268	 63.93396	 40.12078	 12.29780	  7.43878	 45.40181	 -1.40767	 67.22122	710.96997	 32.40	
 11.903	-65.403	 63.95096	 37.00289	 15.22092	  6.03787	 47.38073	 -1.49313	 67.23039	710.87000	 32.40	
 11.893	-73.654	 63.91266	 33.51683	 18.42489	  5.00093	 48.80165	 -1.52684	 67.21324	710.91998	 32.40	
 11.892	-81.845	 63.87732	 29.59312	 21.91296	  4.28045	 49.65851	 -1.48782	 67.20622	710.90997	 32.40	
 11.900	-90.000	 63.81632	 25.83414	 25.43619	  3.94649	 50.03495	 -1.34918	 67.22177	710.92999	 32.40	
 11.892	-98.155	 63.76210	 22.18453	 29.14431	  4.10921	 49.73493	 -1.45331	 67.20085	710.97998	 32.40	
 11.893	-106.346	 63.72593	 18.69329	 32.76221	  4.57389	 48.88270	 -1.50338	 67.22456	710.92999	 32.50	
 11.903	-114.597	 63.65968	 15.47850	 36.20723	  5.49948	 47.49047	 -1.59269	 67.21374	711.09003	 32.50	
 11.897	-122.732	 63.58563	 12.53129	 39.50847	  6.83704	 45.55751	 -1.62905	 67.21883	711.13000	 32.50	
 11.894	-130.867	 63.50279	  9.84166	 42.61763	  8.55731	 43.52859	 -1.61337	 67.22774	711.16998	 32.50	
 11.902	-139.148	 63.42976	  7.45124	 45.42991	 10.70196	 40.75625	 -1.59173	 67.21694	711.03003	 32.50	
 11.909	-147.299	 63.31442	  5.48912	 47.79174	 13.31864	 37.56791	 -1.67274	 67.23178	711.06000	 32.50	
 11.889	-155.445	 63.21591	  3.88403	 49.59975	 16.12387	 34.14450	 -1.81359	 67.25236	711.06000	 32.50	
 11.890	-163.610	 63.08411	  2.58110	 50.91844	 19.18660	 30.36985	 -1.88616	 67.24235	711.06000	 32.50	
 11.899	-171.783	 62.94650	  1.68237	 51.71264	 22.62202	 26.61240	 -1.93070	 67.25117	711.07001	 32.50	
 11.900	180.000	 62.82493	  1.31188	 51.90133	 26.16826	 22.79985	 -1.90203	 67.23219	710.98999	 32.50	
 13.600	180.000	 61.18517	 -1.66635	 54.39573	 24.73627	 21.48014	 -2.30621	 67.21677	711.06000	 32.60	
 13.608	-172.853	 61.30122	 -1.38646	 54.27262	 21.24274	 25.12195	 -2.29518	 67.21864	711.09003	 32.60	
 13.611	-165.583	 61.44601	 -0.64463	 53.60462	 17.77665	 29.05291	 -2.27384	 67.24087	711.15997	 32.60	
 13.601	-158.353	 61.59869	  0.53328	 52.41261	 14.71338	 32.84282	 -2.17555	 67.24153	711.08002	 32.60	
 13.609	-151.210	 61.72976	  2.00538	 50.77892	 11.83318	 36.42613	 -2.02037	 67.21719	711.13000	 32.60	
 13.611	-143.999	 61.82691	  3.66295	 48.68714	  9.09683	 39.77136	 -1.90761	 67.20728	711.17999	 32.60	
 13.601	-136.825	 61.94213	  5.68028	 46.16171	  6.71582	 42.95079	 -1.88589	 67.21771	711.10999	 32.60	
 13.596	-129.640	 62.04326	  7.22763	 43.28769	  4.81908	 45.31627	 -1.87471	 67.22958	711.21002	 32.60	
