FileType=PCF
NHL=14
Date=03/08/19	12:00:26
Facility=APL
Serial=16071-5
Customer=NASA
NP=6
Mach=0.080000
Calibration=1:1
CalPts=490
TstPts=95
PortNumbering=AP Standard
Units=Torr C m/s kg/m^3 deg mm 
Theta[deg]	Phi[deg]	P1[Torr]	P2[Torr]	P3[Torr]	P4[Torr]	P5[Torr]	P6[Torr]	Pt[Torr]	Ps[Abs,Torr]	Ts[C]	
  0.000	  0.000	  3.12663	  1.36848	  1.36910	  1.41362	  1.31655	  0.07167	  3.11940	709.08002	 17.00	
  1.691	128.401	  3.12673	  1.27406	  1.43883	  1.51737	  1.19698	  0.06389	  3.12064	709.06000	 16.90	
  1.692	 77.194	  3.12575	  1.37777	  1.33774	  1.54230	  1.17289	  0.07185	  3.12050	709.14001	 16.90	
  1.699	 26.182	  3.12649	  1.48558	  1.23901	  1.46289	  1.24951	  0.07367	  3.11989	709.09003	 16.90	
  1.699	-26.182	  3.12844	  1.48491	  1.24230	  1.35186	  1.35903	  0.07075	  3.12241	709.13000	 16.80	
  1.692	-77.194	  3.12938	  1.38807	  1.34019	  1.27046	  1.44688	  0.06886	  3.12283	709.13000	 16.80	
  1.691	-128.401	  3.12794	  1.28232	  1.44271	  1.28424	  1.43280	  0.06363	  3.12189	709.15002	 16.80	
  1.700	180.000	  3.12787	  1.22278	  1.49809	  1.39450	  1.30678	  0.06210	  3.12245	709.20001	 16.80	
  3.400	180.000	  3.12101	  1.04732	  1.66709	  1.37587	  1.28962	  0.04690	  3.12187	709.10999	 16.70	
  3.388	-152.325	  3.12338	  1.08742	  1.62652	  1.23729	  1.43184	  0.04645	  3.12295	709.06000	 16.70	
  3.397	-124.529	  3.12443	  1.18103	  1.51891	  1.13562	  1.55302	  0.04747	  3.12280	709.07001	 16.70	
  3.399	-96.763	  3.12486	  1.30932	  1.38284	  1.09484	  1.60700	  0.05107	  3.12292	709.14001	 16.70	
  3.394	-69.283	  3.12535	  1.45876	  1.23965	  1.11732	  1.58369	  0.05399	  3.12212	709.14001	 16.70	
  3.400	-41.398	  3.12694	  1.58489	  1.12511	  1.19347	  1.49115	  0.05995	  3.12412	709.10999	 16.60	
  3.401	-14.021	  3.12487	  1.65821	  1.06119	  1.31097	  1.35628	  0.06681	  3.12094	709.25000	 16.60	
  3.401	 14.021	  3.12573	  1.65028	  1.06246	  1.45966	  1.21361	  0.06934	  3.12356	709.17999	 16.60	
  3.400	 41.398	  3.12443	  1.56964	  1.12081	  1.59743	  1.08797	  0.06813	  3.12360	709.26001	 16.60	
  3.394	 69.283	  3.12093	  1.43489	  1.23800	  1.68825	  1.00897	  0.06568	  3.11976	709.21002	 16.60	
  3.399	 96.763	  3.12199	  1.28594	  1.38465	  1.70603	  0.99666	  0.06176	  3.12189	709.17999	 16.60	
  3.397	124.529	  3.11995	  1.15811	  1.52228	  1.64919	  1.04153	  0.05497	  3.12095	709.16998	 16.60	
  3.388	152.325	  3.12244	  1.07309	  1.62850	  1.52297	  1.14973	  0.04951	  3.12382	709.15997	 16.60	
  5.099	161.165	  3.10489	  0.88097	  1.80234	  1.50833	  1.11343	  0.02913	  3.12327	709.12000	 16.60	
  5.109	142.013	  3.10435	  0.93912	  1.72121	  1.66116	  0.97759	  0.03315	  3.12319	709.09998	 16.60	
  5.095	123.033	  3.10533	  1.04443	  1.59462	  1.77940	  0.88184	  0.03981	  3.12402	709.13000	 16.60	
  5.105	104.191	  3.10404	  1.18052	  1.44057	  1.85199	  0.82318	  0.04345	  3.12265	709.09003	 16.60	
  5.093	 85.207	  3.10564	  1.33685	  1.28433	  1.86763	  0.81442	  0.05106	  3.12167	709.12000	 16.60	
  5.104	 66.290	  3.10776	  1.49593	  1.13421	  1.82952	  0.84584	  0.05387	  3.12267	709.21997	 16.50	
  5.094	 47.331	  3.10821	  1.63990	  1.00930	  1.73598	  0.92383	  0.05660	  3.12180	709.28998	 16.50	
  5.089	 28.397	  3.11307	  1.75185	  0.92415	  1.60299	  1.04101	  0.05866	  3.12539	709.19000	 16.50	
  5.096	  9.576	  3.11485	  1.81630	  0.87878	  1.44658	  1.18362	  0.05776	  3.12645	709.16998	 16.50	
  5.096	 -9.576	  3.11400	  1.81963	  0.88079	  1.28747	  1.33858	  0.05457	  3.12409	709.15002	 16.50	
  5.089	-28.397	  3.11663	  1.76839	  0.92479	  1.14580	  1.49356	  0.04777	  3.12651	709.19000	 16.50	
  5.094	-47.331	  3.11666	  1.66842	  1.01120	  1.03165	  1.63006	  0.04072	  3.12612	709.14001	 16.50	
  5.104	-66.290	  3.11636	  1.53090	  1.13415	  0.95374	  1.72655	  0.03631	  3.12579	709.23999	 16.50	
  5.093	-85.207	  3.11411	  1.37275	  1.27932	  0.91592	  1.76924	  0.03104	  3.12293	709.22998	 16.50	
  5.105	-104.191	  3.11349	  1.21709	  1.43627	  0.91993	  1.75766	  0.02883	  3.12379	709.21002	 16.50	
  5.095	-123.033	  3.11245	  1.07480	  1.59088	  0.97239	  1.68786	  0.02843	  3.12360	709.21997	 16.50	
  5.109	-142.013	  3.11020	  0.96619	  1.71751	  1.06897	  1.57060	  0.02578	  3.12356	709.15997	 16.50	
  5.099	-161.165	  3.11087	  0.89543	  1.80225	  1.20279	  1.42192	  0.02673	  3.12432	709.12000	 16.50	
  5.100	180.000	  3.10856	  0.86438	  1.83323	  1.35169	  1.26559	  0.02744	  3.12327	709.14001	 16.50	
  6.800	180.000	  3.07842	  0.67522	  1.98927	  1.31771	  1.23457	  0.00326	  3.12247	709.13000	 16.50	
  6.796	-166.229	  3.08132	  0.70054	  1.96650	  1.16880	  1.39097	  0.00172	  3.12248	709.10999	 16.50	
  6.808	-152.311	  3.08304	  0.75058	  1.90496	  1.02562	  1.54566	  0.00180	  3.12104	709.09998	 16.50	
  6.795	-138.383	  3.08613	  0.83471	  1.80494	  0.90692	  1.68687	  0.00353	  3.12260	709.13000	 16.50	
  6.792	-124.591	  3.08915	  0.94602	  1.67586	  0.81927	  1.79974	  0.00206	  3.12343	709.09003	 16.50	
  6.787	-110.754	  3.09006	  1.08001	  1.52705	  0.75912	  1.88038	  0.00286	  3.12281	709.13000	 16.50	
  6.800	-96.985	  3.08920	  1.22846	  1.37013	  0.72855	  1.92314	  0.00490	  3.12163	709.09003	 16.50	
  6.800	-83.015	  3.09237	  1.38909	  1.21118	  0.73245	  1.92343	  0.00654	  3.12412	709.15997	 16.50	
  6.787	-69.246	  3.09564	  1.54507	  1.06763	  0.77264	  1.87801	  0.00980	  3.12631	709.17999	 16.50	
  6.792	-55.409	  3.09512	  1.69034	  0.93974	  0.83890	  1.79471	  0.01522	  3.12551	709.03998	 16.50	
  6.795	-41.617	  3.09198	  1.81069	  0.83579	  0.92769	  1.68212	  0.01955	  3.12347	709.15002	 16.50	
  6.808	-27.689	  3.08958	  1.90567	  0.75402	  1.04487	  1.54265	  0.02674	  3.12200	709.15002	 16.50	
  6.796	-13.771	  3.09106	  1.96351	  0.70837	  1.18923	  1.38710	  0.03416	  3.12412	709.19000	 16.50	
  6.800	  0.000	  3.08642	  1.97790	  0.68968	  1.33784	  1.22914	  0.03759	  3.12052	709.21002	 16.50	
  6.796	 13.771	  3.08944	  1.95251	  0.70711	  1.49904	  1.07700	  0.03970	  3.12537	709.15002	 16.50	
  6.808	 27.689	  3.08427	  1.88516	  0.75323	  1.65593	  0.93482	  0.04312	  3.12258	709.10999	 16.50	
  6.795	 41.617	  3.08539	  1.78228	  0.83365	  1.79192	  0.82116	  0.04302	  3.12463	709.02002	 16.50	
  6.792	 55.409	  3.08201	  1.65062	  0.93984	  1.90150	  0.72896	  0.03693	  3.12230	709.13000	 16.50	
  6.787	 69.246	  3.08500	  1.50093	  1.07381	  1.98213	  0.66646	  0.03766	  3.12661	709.17999	 16.50	
  6.800	 83.015	  3.08211	  1.34174	  1.21960	  2.02181	  0.63051	  0.03249	  3.12544	708.94000	 16.50	
  6.800	 96.985	  3.07759	  1.18348	  1.37646	  2.01606	  0.63216	  0.02559	  3.12284	709.09998	 16.50	
  6.787	110.754	  3.07887	  1.03743	  1.53648	  1.97266	  0.66542	  0.02086	  3.12549	709.08002	 16.50	
  6.792	124.591	  3.07698	  0.90970	  1.68105	  1.88848	  0.72910	  0.01746	  3.12487	708.96002	 16.50	
  6.795	138.383	  3.07632	  0.80606	  1.80945	  1.77469	  0.81986	  0.01141	  3.12495	709.13000	 16.50	
  6.808	152.311	  3.07604	  0.73249	  1.90617	  1.63277	  0.94119	  0.00639	  3.12291	709.09998	 16.50	
  6.796	166.229	  3.07936	  0.68766	  1.97030	  1.47720	  1.08312	  0.00567	  3.12452	709.07001	 16.50	
  8.491	168.704	  3.03767	  0.49700	  2.12079	  1.44125	  1.03992	 -0.02162	  3.12385	709.04999	 16.50	
  8.502	157.493	  3.03640	  0.53184	  2.07020	  1.60427	  0.89207	 -0.01965	  3.12453	709.04999	 16.50	
  8.494	146.194	  3.03544	  0.59494	  1.98448	  1.75766	  0.75898	 -0.01836	  3.12553	709.07001	 16.50	
  8.495	135.039	  3.03509	  0.68134	  1.87211	  1.89126	  0.65036	 -0.01192	  3.12488	709.14001	 16.50	
  8.487	123.723	  3.03407	  0.78948	  1.73540	  2.00805	  0.55781	 -0.00792	  3.12385	709.14001	 16.50	
  8.492	112.575	  3.03374	  0.91436	  1.58462	  2.09461	  0.49046	 -0.00907	  3.12315	709.15002	 16.50	
  8.510	101.220	  3.03428	  1.05945	  1.42131	  2.15289	  0.44733	 -0.00612	  3.12169	709.04999	 16.50	
  8.500	 90.000	  3.03810	  1.21927	  1.25870	  2.17455	  0.43662	  0.00184	  3.12410	709.07001	 16.50	
  8.510	 78.780	  3.04349	  1.38260	  1.10235	  2.16348	  0.44802	  0.00769	  3.12703	709.09003	 16.50	
  8.492	 67.425	  3.04215	  1.54580	  0.95104	  2.10911	  0.48904	  0.01068	  3.12258	709.10999	 16.50	
  8.487	 56.277	  3.04582	  1.69968	  0.82360	  2.02726	  0.55667	  0.01295	  3.12391	709.13000	 16.50	
  8.495	 44.961	  3.04569	  1.83930	  0.70970	  1.91461	  0.64564	  0.01689	  3.12373	709.13000	 16.50	
  8.494	 33.806	  3.04464	  1.95355	  0.62029	  1.78319	  0.75099	  0.02004	  3.12069	709.14001	 16.50	
  8.502	 22.507	  3.04884	  2.04820	  0.55182	  1.63411	  0.87972	  0.02000	  3.12436	709.03998	 16.50	
  8.491	 11.296	  3.04648	  2.10111	  0.51565	  1.46950	  1.02775	  0.01665	  3.11899	709.09998	 16.60	
  8.500	  0.000	  3.05376	  2.12832	  0.50395	  1.30867	  1.18894	  0.01382	  3.12406	709.19000	 16.50	
  8.491	-11.296	  3.05217	  2.11217	  0.51893	  1.14888	  1.35074	  0.01027	  3.12050	709.03003	 16.50	
  8.502	-22.507	  3.05307	  2.06752	  0.55613	  0.99817	  1.51415	  0.00270	  3.12098	709.08002	 16.60	
  8.494	-33.806	  3.05552	  1.98718	  0.62139	  0.86735	  1.66767	 -0.00531	  3.12222	709.08002	 16.60	
  8.495	-44.961	  3.05596	  1.87952	  0.70917	  0.75620	  1.80230	 -0.00931	  3.12185	709.09998	 16.60	
  8.487	-56.277	  3.05487	  1.74702	  0.81951	  0.66462	  1.91730	 -0.01299	  3.12121	709.10999	 16.60	
  8.492	-67.425	  3.05338	  1.59999	  0.94513	  0.59677	  2.00219	 -0.02025	  3.11981	709.12000	 16.60	
  8.510	-78.780	  3.05602	  1.43879	  1.09180	  0.54984	  2.06221	 -0.02215	  3.12330	709.03998	 16.60	
  8.500	-90.000	  3.05407	  1.27787	  1.24950	  0.53599	  2.07938	 -0.02398	  3.12232	709.07001	 16.60	
  8.510	-101.220	  3.05240	  1.11803	  1.41359	  0.54517	  2.06314	 -0.02549	  3.12145	709.09998	 16.60	
  8.492	-112.575	  3.05238	  0.96602	  1.57777	  0.58259	  2.00929	 -0.02791	  3.12192	709.03003	 16.60	
  8.487	-123.723	  3.05147	  0.83429	  1.72939	  0.64656	  1.92506	 -0.02865	  3.12324	709.03003	 16.60	
  8.495	-135.039	  3.04940	  0.71904	  1.86586	  0.73556	  1.80989	 -0.02348	  3.12288	709.08002	 16.60	
  8.494	-146.194	  3.04541	  0.62112	  1.97858	  0.84168	  1.67446	 -0.02260	  3.12017	709.06000	 16.60	
  8.502	-157.493	  3.04698	  0.55191	  2.06754	  0.97577	  1.52213	 -0.02610	  3.12465	709.14001	 16.60	
  8.491	-168.704	  3.04201	  0.50946	  2.11806	  1.12196	  1.35920	 -0.02693	  3.12160	709.15002	 16.60	
  8.500	180.000	  3.03899	  0.49034	  2.13640	  1.27709	  1.19829	 -0.02347	  3.12264	709.06000	 16.60	
 10.200	180.000	  2.98883	  0.30645	  2.27584	  1.23050	  1.15675	 -0.05276	  3.12246	709.09003	 16.60	
 10.191	-170.497	  2.99271	  0.32221	  2.26153	  1.07281	  1.32079	 -0.05453	  3.12292	709.04999	 16.60	
 10.210	-161.034	  2.99067	  0.35452	  2.21557	  0.91823	  1.48474	 -0.05453	  3.11997	709.07001	 16.60	
 10.194	-151.526	  2.99323	  0.41426	  2.13864	  0.78231	  1.64351	 -0.05156	  3.12035	708.95001	 16.60	
 10.190	-142.105	  2.99684	  0.49673	  2.03874	  0.66455	  1.78903	 -0.05061	  3.12052	709.08002	 16.60	
 10.215	-132.646	  2.99883	  0.59573	  1.91480	  0.55703	  1.92653	 -0.05284	  3.12114	709.10999	 16.60	
 10.203	-123.092	  2.99954	  0.71440	  1.77290	  0.47087	  2.04129	 -0.05604	  3.12069	709.03998	 16.60	
 10.192	-113.678	  3.00120	  0.84762	  1.61781	  0.40796	  2.12868	 -0.05561	  3.12212	709.03003	 16.60	
 10.208	-104.249	  3.00387	  0.99588	  1.45570	  0.36712	  2.18589	 -0.05319	  3.12248	709.02002	 16.60	
 10.210	-94.801	  3.00377	  1.15337	  1.28948	  0.34884	  2.21688	 -0.04917	  3.12115	709.04999	 16.60	
 10.210	-85.199	  3.00870	  1.32326	  1.12325	  0.35373	  2.21815	 -0.05125	  3.12428	709.02002	 16.60	
 10.208	-75.751	  3.00828	  1.48534	  0.96899	  0.37646	  2.18707	 -0.05181	  3.12254	708.98999	 16.60	
 10.192	-66.322	  3.01034	  1.64748	  0.82667	  0.42451	  2.12431	 -0.04777	  3.12322	709.01001	 16.60	
 10.203	-56.908	  3.00909	  1.79793	  0.69653	  0.48972	  2.03558	 -0.04254	  3.12199	709.03998	 16.60	
 10.215	-47.354	  3.00964	  1.93665	  0.58465	  0.58067	  1.91932	 -0.04029	  3.12165	709.07001	 16.60	
 10.190	-37.895	  3.00882	  2.05380	  0.49067	  0.68811	  1.78340	 -0.03688	  3.11986	709.07001	 16.60	
 10.194	-28.474	  3.00811	  2.14808	  0.41650	  0.80864	  1.63684	 -0.03222	  3.12044	709.04999	 16.60	
 10.210	-18.966	  3.00658	  2.21799	  0.36092	  0.94979	  1.47542	 -0.02517	  3.12047	709.08002	 16.60	
 10.191	 -9.503	  3.00616	  2.25539	  0.33063	  1.10322	  1.30956	 -0.01856	  3.12077	709.14001	 16.60	
 10.200	  0.000	  3.00487	  2.26687	  0.31720	  1.26551	  1.14478	 -0.01426	  3.12229	709.09003	 16.60	
 10.191	  9.503	  3.00103	  2.24317	  0.32974	  1.43096	  0.98362	 -0.01053	  3.12005	709.06000	 16.60	
 10.210	 18.966	  2.99966	  2.19693	  0.35986	  1.59808	  0.83012	 -0.00650	  3.12289	709.03003	 16.60	
 10.194	 28.474	  2.99635	  2.11425	  0.41391	  1.75386	  0.69294	 -0.00362	  3.12106	709.03003	 16.60	
 10.190	 37.895	  2.99364	  2.00682	  0.49297	  1.89880	  0.57564	 -0.00515	  3.11854	708.96002	 16.60	
 10.215	 47.354	  2.99434	  1.88245	  0.58766	  2.03359	  0.46842	 -0.01242	  3.12323	709.03998	 16.60	
 10.203	 56.908	  2.99154	  1.73446	  0.70521	  2.14337	  0.38257	 -0.01469	  3.12130	709.09003	 16.60	
 10.192	 66.322	  2.98873	  1.57733	  0.83448	  2.22273	  0.31836	 -0.01784	  3.12057	709.03003	 16.60	
 10.208	 75.751	  2.98674	  1.41487	  0.97941	  2.27979	  0.27747	 -0.01918	  3.11961	709.04999	 16.60	
 10.210	 85.199	  2.98526	  1.24808	  1.13631	  2.30692	  0.25321	 -0.02323	  3.12036	709.07001	 16.60	
 10.210	 94.801	  2.98286	  1.08422	  1.30184	  2.30269	  0.25484	 -0.03083	  3.12007	709.10999	 16.60	
 10.208	104.249	  2.97998	  0.92755	  1.46631	  2.27203	  0.27241	 -0.03869	  3.12068	709.07001	 16.60	
 10.192	113.678	  2.97942	  0.78576	  1.62946	  2.20745	  0.31942	 -0.04080	  3.12089	708.98999	 16.60	
 10.203	123.092	  2.97925	  0.65993	  1.78206	  2.11814	  0.38569	 -0.03874	  3.12315	709.15997	 16.60	
 10.215	132.646	  2.97694	  0.54668	  1.92375	  2.00214	  0.47043	 -0.04236	  3.12145	709.14001	 16.60	
 10.190	142.105	  2.97841	  0.45677	  2.04578	  1.86561	  0.57928	 -0.04674	  3.12179	709.13000	 16.60	
 10.194	151.526	  2.98021	  0.38531	  2.14496	  1.71920	  0.70066	 -0.05055	  3.12316	709.00000	 16.60	
 10.210	161.034	  2.98137	  0.33674	  2.21734	  1.56062	  0.84002	 -0.05127	  3.12112	709.13000	 16.60	
 10.191	170.497	  2.98670	  0.31045	  2.26223	  1.39578	  0.99473	 -0.04998	  3.12453	709.03998	 16.60	
 11.899	171.783	  2.92276	  0.12757	  2.39339	  1.33929	  0.94420	 -0.07809	  3.12341	709.02002	 16.60	
 11.890	163.610	  2.92015	  0.15015	  2.35368	  1.50649	  0.78984	 -0.07917	  3.12237	708.98999	 16.60	
 11.889	155.445	  2.91751	  0.19206	  2.28839	  1.66972	  0.64732	 -0.08155	  3.12041	709.13000	 16.60	
 11.909	147.299	  2.91595	  0.24780	  2.20526	  1.82493	  0.51820	 -0.08004	  3.12288	709.03998	 16.60	
 11.902	139.148	  2.91280	  0.32469	  2.09395	  1.97092	  0.39880	 -0.07724	  3.11983	709.00000	 16.60	
 11.894	130.867	  2.91589	  0.42171	  1.96572	  2.10477	  0.30299	 -0.07319	  3.12278	709.04999	 16.60	
 11.897	122.732	  2.91730	  0.53436	  1.82167	  2.21692	  0.22283	 -0.06900	  3.12257	709.01001	 16.60	
 11.903	114.597	  2.91937	  0.66061	  1.66691	  2.30857	  0.15902	 -0.06933	  3.12363	709.04999	 16.60	
 11.893	106.346	  2.92046	  0.80130	  1.50261	  2.37606	  0.11254	 -0.07053	  3.12338	709.15002	 16.60	
 11.892	 98.155	  2.92523	  0.95456	  1.33580	  2.42045	  0.08496	 -0.06529	  3.12521	709.15002	 16.70	
 11.900	 90.000	  2.92527	  1.11171	  1.16972	  2.43918	  0.07069	 -0.06052	  3.12457	709.15002	 16.60	
 11.892	 81.845	  2.92663	  1.27714	  1.00706	  2.42841	  0.08055	 -0.05259	  3.12207	709.07001	 16.70	
 11.893	 73.654	  2.92621	  1.44471	  0.84898	  2.39260	  0.10309	 -0.05100	  3.12182	709.20001	 16.70	
 11.903	 65.403	  2.92951	  1.61307	  0.70351	  2.33442	  0.14546	 -0.05004	  3.12388	709.17999	 16.70	
 11.897	 57.268	  2.93140	  1.76995	  0.57835	  2.24660	  0.21393	 -0.04699	  3.12329	709.15002	 16.60	
 11.894	 49.133	  2.93099	  1.91521	  0.46401	  2.13897	  0.29387	 -0.04168	  3.12112	709.15997	 16.60	
 11.902	 40.852	  2.93141	  2.05076	  0.36154	  2.01063	  0.39067	 -0.03591	  3.12071	709.19000	 16.60	
 11.909	 32.701	  2.93403	  2.16632	  0.27933	  1.86694	  0.50435	 -0.03255	  3.12039	709.19000	 16.70	
 11.889	 24.555	  2.94110	  2.26178	  0.21806	  1.71486	  0.63474	 -0.03257	  3.12387	709.16998	 16.70	
 11.890	 16.390	  2.94367	  2.33274	  0.17331	  1.55438	  0.77463	 -0.03548	  3.12419	709.09003	 16.70	
 11.899	  8.217	  2.94204	  2.37730	  0.14434	  1.38466	  0.92878	 -0.03828	  3.12082	709.09998	 16.70	
 11.900	  0.000	  2.94553	  2.39751	  0.13507	  1.21735	  1.09057	 -0.04216	  3.12240	709.15002	 16.70	
 11.899	 -8.217	  2.94921	  2.39070	  0.14488	  1.05923	  1.25452	 -0.04496	  3.12387	709.22998	 16.70	
 11.890	-16.390	  2.95026	  2.35588	  0.17176	  0.90084	  1.42507	 -0.04990	  3.12264	709.28998	 16.70	
 11.889	-24.555	  2.95166	  2.29712	  0.21762	  0.75722	  1.58921	 -0.05591	  3.12178	709.08002	 16.70	
 11.909	-32.701	  2.95177	  2.21599	  0.27689	  0.62700	  1.74382	 -0.06207	  3.12182	709.07001	 16.70	
 11.902	-40.852	  2.95311	  2.11227	  0.35876	  0.50809	  1.89471	 -0.06666	  3.12423	709.08002	 16.70	
 11.894	-49.133	  2.95253	  1.98228	  0.45885	  0.40722	  2.02588	 -0.06601	  3.12340	709.07001	 16.70	
 11.897	-57.268	  2.95155	  1.84078	  0.57318	  0.32382	  2.13655	 -0.06816	  3.12071	709.07001	 16.70	
 11.903	-65.403	  2.95272	  1.69179	  0.69890	  0.25839	  2.22979	 -0.07100	  3.12410	709.09998	 16.70	
 11.893	-73.654	  2.94929	  1.52800	  0.84045	  0.21157	  2.29414	 -0.07272	  3.12075	709.03003	 16.70	
 11.892	-81.845	  2.94952	  1.35986	  0.99557	  0.17935	  2.33863	 -0.07316	  3.12315	709.10999	 16.70	
 11.900	-90.000	  2.94936	  1.19642	  1.15345	  0.16625	  2.35498	 -0.07237	  3.12448	709.08002	 16.70	
 11.892	-98.155	  2.94615	  1.03496	  1.31899	  0.17524	  2.33889	 -0.07159	  3.12279	709.08002	 16.70	
 11.893	-106.346	  2.94678	  0.87647	  1.49038	  0.20029	  2.30091	 -0.07345	  3.12441	709.08002	 16.70	
 11.903	-114.597	  2.94344	  0.72919	  1.65329	  0.24206	  2.23467	 -0.07562	  3.12201	708.96002	 16.70	
 11.897	-122.732	  2.94468	  0.59966	  1.81142	  0.30618	  2.14964	 -0.07451	  3.12574	709.15997	 16.70	
 11.894	-130.867	  2.94216	  0.47864	  1.95581	  0.38381	  2.03689	 -0.07430	  3.12457	709.17999	 16.70	
 11.902	-139.148	  2.93935	  0.37363	  2.08696	  0.48372	  1.90124	 -0.07181	  3.12266	709.20001	 16.70	
 11.909	-147.299	  2.93782	  0.28745	  2.19796	  0.59616	  1.75711	 -0.07203	  3.12329	709.17999	 16.70	
 11.889	-155.445	  2.93712	  0.21856	  2.28813	  0.72285	  1.60282	 -0.07466	  3.12449	709.09998	 16.70	
 11.890	-163.610	  2.93397	  0.17108	  2.35195	  0.86433	  1.43996	 -0.07946	  3.12434	709.07001	 16.70	
 11.899	-171.783	  2.92970	  0.13868	  2.39231	  1.01635	  1.27223	 -0.08113	  3.12435	709.08002	 16.70	
 11.900	180.000	  2.92752	  0.12476	  2.40679	  1.17499	  1.10757	 -0.07896	  3.12490	709.06000	 16.70	
 13.600	180.000	  2.85332	 -0.05626	  2.52927	  1.11109	  1.04956	 -0.10063	  3.12483	709.07001	 16.70	
 13.608	-172.853	  2.85447	 -0.04463	  2.51617	  0.95387	  1.21040	 -0.10217	  3.12360	709.09003	 16.70	
 13.611	-165.583	  2.85523	 -0.01732	  2.48059	  0.79893	  1.38078	 -0.10001	  3.12204	709.28003	 16.70	
 13.601	-158.353	  2.85894	  0.02852	  2.42079	  0.65564	  1.54870	 -0.09509	  3.12207	709.08002	 16.70	
 13.609	-151.210	  2.86269	  0.08601	  2.34110	  0.52671	  1.70897	 -0.09092	  3.12366	709.13000	 16.70	
 13.611	-143.999	  2.86496	  0.16102	  2.23909	  0.40599	  1.86402	 -0.08756	  3.12339	709.13000	 16.70	
 13.601	-136.825	  2.86705	  0.25038	  2.12080	  0.30062	  2.00777	 -0.08699	  3.12362	709.17999	 16.70	
 13.596	-129.640	  2.86760	  0.35457	  1.98479	  0.21233	  2.13140	 -0.08919	  3.12190	709.09003	 16.70	
