FileType=PCF
NHL=14
Date=03/08/19	12:39:06
Facility=APL
Serial=16071-5
Customer=NASA
NP=6
Mach=0.150000
Calibration=1:1
CalPts=490
TstPts=95
PortNumbering=AP Standard
Units=Torr C m/s kg/m^3 deg mm 
Theta[deg]	Phi[deg]	P1[Torr]	P2[Torr]	P3[Torr]	P4[Torr]	P5[Torr]	P6[Torr]	Pt[Torr]	Ps[Abs,Torr]	Ts[C]	
  0.000	  0.000	 11.07173	  4.66520	  4.74475	  4.90791	  4.46587	  0.25912	 11.07085	709.60999	 17.60	
  1.691	128.401	 11.05728	  4.29740	  5.03864	  5.34919	  4.00603	  0.24575	 11.06379	709.54999	 17.60	
  1.692	 77.194	 11.06397	  4.75820	  4.60360	  5.47121	  3.89582	  0.26452	 11.06384	709.04999	 17.60	
  1.699	 26.182	 11.06372	  5.16669	  4.21961	  5.15805	  4.19143	  0.27328	 11.06600	709.15002	 17.60	
  1.699	-26.182	 11.06731	  5.16985	  4.23796	  4.66074	  4.68024	  0.26743	 11.06952	709.54999	 17.60	
  1.692	-77.194	 11.05954	  4.78997	  4.60745	  4.33878	  5.01994	  0.24641	 11.06249	709.52002	 17.60	
  1.691	-128.401	 11.07064	  4.31952	  5.07763	  4.43732	  4.92145	  0.23292	 11.07346	709.59003	 17.60	
  1.700	180.000	 11.05872	  4.09844	  5.26982	  4.86453	  4.46822	  0.22646	 11.06419	709.56000	 17.60	
  3.400	180.000	 11.03516	  3.48368	  5.86865	  4.79200	  4.41178	  0.16973	 11.06356	709.59998	 17.70	
  3.388	-152.325	 11.04526	  3.63822	  5.72904	  4.26054	  4.97253	  0.18396	 11.06259	709.56000	 17.70	
  3.397	-124.529	 11.05858	  4.00863	  5.34788	  3.90649	  5.39682	  0.18704	 11.07250	709.56000	 17.70	
  3.399	-96.763	 11.05364	  4.50528	  4.84198	  3.74543	  5.58003	  0.19938	 11.06540	709.59003	 17.70	
  3.394	-69.283	 11.05655	  5.02084	  4.32043	  3.80151	  5.53410	  0.21887	 11.06781	709.65997	 17.70	
  3.400	-41.398	 11.05932	  5.50296	  3.87371	  4.12152	  5.17164	  0.23264	 11.06700	709.75000	 17.70	
  3.401	-14.021	 11.05485	  5.77904	  3.61667	  4.60600	  4.64663	  0.25693	 11.06962	709.54999	 17.70	
  3.401	 14.021	 11.05634	  5.77029	  3.60810	  5.14098	  4.12965	  0.26506	 11.06894	709.59003	 17.70	
  3.400	 41.398	 11.05406	  5.46285	  3.84943	  5.62819	  3.66057	  0.25051	 11.07505	709.59003	 17.70	
  3.394	 69.283	 11.03623	  4.95736	  4.29627	  5.95102	  3.36249	  0.23841	 11.06299	709.64001	 17.70	
  3.399	 96.763	 11.03531	  4.40566	  4.84083	  6.01653	  3.30289	  0.21693	 11.07049	709.50000	 17.70	
  3.397	124.529	 11.02856	  3.93233	  5.32242	  5.82652	  3.46769	  0.21304	 11.06836	709.59003	 17.70	
  3.388	152.325	 11.02798	  3.59886	  5.71643	  5.35308	  3.87476	  0.17648	 11.06458	709.65997	 17.70	
  5.099	161.165	 10.97302	  2.90993	  6.34693	  5.29016	  3.76486	  0.10479	 11.06811	709.65002	 17.70	
  5.109	142.013	 10.96425	  3.13934	  6.04938	  5.84516	  3.27100	  0.11654	 11.07359	709.71997	 17.80	
  5.095	123.033	 10.95741	  3.53815	  5.58413	  6.27937	  2.91061	  0.13979	 11.06501	709.71997	 17.80	
  5.105	104.191	 10.96432	  4.00404	  5.05832	  6.51675	  2.71600	  0.15264	 11.06886	709.59998	 17.80	
  5.093	 85.207	 10.97711	  4.58051	  4.47449	  6.58793	  2.67214	  0.17978	 11.07205	709.58002	 17.80	
  5.104	 66.290	 10.98143	  5.15632	  3.92661	  6.44499	  2.78686	  0.19177	 11.06900	709.52002	 17.80	
  5.094	 47.331	 10.99073	  5.69361	  3.46145	  6.11532	  3.08051	  0.20832	 11.07127	709.42999	 17.80	
  5.089	 28.397	 10.99295	  6.09649	  3.14306	  5.63086	  3.51553	  0.21596	 11.06610	708.81000	 17.80	
  5.096	  9.576	 11.00681	  6.32716	  2.98673	  5.07753	  4.03484	  0.21429	 11.06895	709.60999	 17.80	
  5.096	 -9.576	 11.01083	  6.35598	  2.97842	  4.49089	  4.60264	  0.21557	 11.07056	709.57001	 17.80	
  5.089	-28.397	 11.02256	  6.16876	  3.15866	  3.98089	  5.16554	  0.19305	 11.07235	709.04999	 17.80	
  5.094	-47.331	 11.02125	  5.79372	  3.49212	  3.53309	  5.66579	  0.17262	 11.06871	709.57001	 17.80	
  5.104	-66.290	 11.02522	  5.28289	  3.96330	  3.23715	  6.03099	  0.15976	 11.07087	709.16998	 17.80	
  5.093	-85.207	 11.02717	  4.72861	  4.49515	  3.12379	  6.16652	  0.13589	 11.07314	709.57001	 17.80	
  5.105	-104.191	 11.02217	  4.15199	  5.07950	  3.14701	  6.12680	  0.12799	 11.07388	708.90997	 17.80	
  5.095	-123.033	 11.01490	  3.65775	  5.59928	  3.34213	  5.87832	  0.11272	 11.06986	708.83002	 17.90	
  5.109	-142.013	 11.00427	  3.23644	  6.06289	  3.67902	  5.44954	  0.10743	 11.07027	708.84998	 17.80	
  5.099	-161.165	 10.99857	  2.96063	  6.36137	  4.15733	  4.91044	  0.10711	 11.07469	709.14001	 17.90	
  5.100	180.000	 10.97483	  2.84468	  6.44699	  4.70739	  4.32510	  0.09985	 11.06115	709.02002	 17.90	
  6.800	180.000	 10.88516	  2.19181	  7.00950	  4.60206	  4.22893	  0.01514	 11.07268	708.81000	 17.90	
  6.796	-166.229	 10.89658	  2.28029	  6.93470	  4.06118	  4.79680	  0.00643	 11.06958	709.58002	 17.90	
  6.808	-152.311	 10.90912	  2.47964	  6.71817	  3.54991	  5.36439	  0.01333	 11.07194	709.25000	 17.90	
  6.795	-138.383	 10.92150	  2.78865	  6.36644	  3.12041	  5.87078	  0.01862	 11.07290	709.58002	 17.90	
  6.792	-124.591	 10.92813	  3.19060	  5.90618	  2.79618	  6.27522	  0.02017	 11.07411	708.81000	 17.90	
  6.787	-110.754	 10.93274	  3.67858	  5.36883	  2.57377	  6.57311	  0.03105	 11.07214	709.09998	 17.90	
  6.800	-96.985	 10.93882	  4.21686	  4.80843	  2.47208	  6.71855	  0.03920	 11.07203	709.50000	 17.90	
  6.800	-83.015	 10.94615	  4.79610	  4.23703	  2.48391	  6.71978	  0.04973	 11.07486	709.35999	 17.90	
  6.787	-69.246	 10.95288	  5.35705	  3.71461	  2.61323	  6.56156	  0.06345	 11.07576	708.85999	 17.90	
  6.792	-55.409	 10.94685	  5.87836	  3.23619	  2.84115	  6.26802	  0.08125	 11.07324	709.28003	 17.90	
  6.795	-41.617	 10.94445	  6.32624	  2.84414	  3.17615	  5.86042	  0.10022	 11.07212	708.84003	 17.90	
  6.808	-27.689	 10.94262	  6.66787	  2.54958	  3.61739	  5.34852	  0.11628	 11.07301	708.84003	 17.90	
  6.796	-13.771	 10.93663	  6.87255	  2.37380	  4.13819	  4.77574	  0.13710	 11.07337	708.79999	 17.90	
  6.800	  0.000	 10.92804	  6.91954	  2.31882	  4.69220	  4.21737	  0.14686	 11.07563	708.77002	 17.90	
  6.796	 13.771	 10.91626	  6.81835	  2.37667	  5.26582	  3.65654	  0.14524	 11.07233	708.76001	 18.00	
  6.808	 27.689	 10.90913	  6.57328	  2.54170	  5.82110	  3.14794	  0.14985	 11.07256	708.65997	 18.00	
  6.795	 41.617	 10.89895	  6.19244	  2.82947	  6.31737	  2.71191	  0.13655	 11.07500	708.69000	 18.00	
  6.792	 55.409	 10.89441	  5.71831	  3.22142	  6.70962	  2.37517	  0.11887	 11.07649	709.54999	 18.00	
  6.787	 69.246	 10.88405	  5.16478	  3.70049	  6.98585	  2.13985	  0.11179	 11.07180	709.42999	 18.00	
  6.800	 83.015	 10.87340	  4.59368	  4.22973	  7.11963	  2.02163	  0.10147	 11.06999	709.40002	 18.00	
  6.800	 96.985	 10.87141	  4.01986	  4.80508	  7.11487	  2.01297	  0.06951	 11.07618	708.66998	 18.00	
  6.787	110.754	 10.85928	  3.49040	  5.36804	  6.94975	  2.13401	  0.05421	 11.07468	708.75000	 18.00	
  6.792	124.591	 10.85877	  3.02677	  5.90177	  6.65361	  2.37095	  0.05462	 11.07546	708.76001	 18.00	
  6.795	138.383	 10.85699	  2.65571	  6.35396	  6.24870	  2.69668	  0.03275	 11.07501	708.71997	 18.00	
  6.808	152.311	 10.86231	  2.38096	  6.71297	  5.74133	  3.14025	  0.01308	 11.07486	708.76001	 18.00	
  6.796	166.229	 10.87546	  2.22598	  6.93604	  5.17490	  3.66502	  0.01397	 11.07680	708.76001	 18.00	
  8.491	168.704	 10.73012	  1.53572	  7.48334	  5.04644	  3.50941	 -0.08446	 11.07420	709.19000	 18.00	
  8.502	157.493	 10.71266	  1.65429	  7.29023	  5.63140	  2.96342	 -0.08604	 11.07390	709.46997	 18.00	
  8.494	146.194	 10.70684	  1.87956	  6.98256	  6.17686	  2.48140	 -0.07593	 11.07209	708.96002	 18.00	
  8.495	135.039	 10.70427	  2.18839	  6.57704	  6.66107	  2.08376	 -0.05854	 11.07539	708.71997	 18.00	
  8.487	123.723	 10.69558	  2.58139	  6.08269	  7.07210	  1.74936	 -0.04303	 11.06413	708.77002	 18.00	
  8.492	112.575	 10.70514	  3.04295	  5.54529	  7.38633	  1.51180	 -0.04839	 11.07255	708.92999	 18.00	
  8.510	101.220	 10.70783	  3.57635	  4.95512	  7.59013	  1.35593	 -0.04523	 11.06902	709.29999	 18.00	
  8.500	 90.000	 10.71582	  4.14490	  4.36824	  7.66274	  1.31015	 -0.02119	 11.06863	708.82001	 18.00	
  8.510	 78.780	 10.73507	  4.73433	  3.80246	  7.62274	  1.36033	  0.00610	 11.07877	708.90002	 18.10	
  8.492	 67.425	 10.74040	  5.33872	  3.26189	  7.44044	  1.51215	  0.01083	 11.07400	708.87000	 18.10	
  8.487	 56.277	 10.75527	  5.89398	  2.79488	  7.15115	  1.75527	  0.02343	 11.08179	708.98999	 18.10	
  8.495	 44.961	 10.75569	  6.39925	  2.38096	  6.75585	  2.08151	  0.03976	 11.07367	708.78998	 18.10	
  8.494	 33.806	 10.76293	  6.82040	  2.05728	  6.28192	  2.48200	  0.06164	 11.07304	708.88000	 18.10	
  8.502	 22.507	 10.77555	  7.15422	  1.82187	  5.74560	  2.95750	  0.06216	 11.07701	708.65997	 18.10	
  8.491	 11.296	 10.79330	  7.37071	  1.68628	  5.16808	  3.49343	  0.05162	 11.07785	709.54999	 18.10	
  8.500	  0.000	 10.79493	  7.45841	  1.63299	  4.57499	  4.06144	  0.04887	 11.06931	708.77002	 18.10	
  8.491	-11.296	 10.81085	  7.41812	  1.69243	  4.01161	  4.64895	  0.04369	 11.07218	708.82001	 18.10	
  8.502	-22.507	 10.82715	  7.25941	  1.83694	  3.47263	  5.24792	  0.02529	 11.08320	708.78003	 18.10	
  8.494	-33.806	 10.82626	  6.96403	  2.08728	  2.98505	  5.80965	  0.00323	 11.07565	708.78003	 18.10	
  8.495	-44.961	 10.82903	  6.57707	  2.41080	  2.58268	  6.29126	 -0.00837	 11.06692	708.78998	 18.10	
  8.487	-56.277	 10.83085	  6.10186	  2.81481	  2.25031	  6.70809	 -0.02015	 11.07259	708.77002	 18.10	
  8.492	-67.425	 10.83015	  5.57357	  3.27861	  2.00172	  7.02165	 -0.04582	 11.07269	708.72998	 18.10	
  8.510	-78.780	 10.82283	  4.98663	  3.81385	  1.84029	  7.22523	 -0.06219	 11.07084	708.73999	 18.10	
  8.500	-90.000	 10.82425	  4.40305	  4.37961	  1.78489	  7.28660	 -0.06574	 11.07868	708.75000	 18.10	
  8.510	-101.220	 10.81238	  3.82219	  4.95982	  1.80823	  7.22519	 -0.07270	 11.07444	708.78003	 18.10	
  8.492	-112.575	 10.80218	  3.26505	  5.55003	  1.94829	  7.02302	 -0.07841	 11.06960	708.78998	 18.10	
  8.487	-123.723	 10.80084	  2.78882	  6.09448	  2.17883	  6.72213	 -0.08559	 11.07449	708.65997	 18.10	
  8.495	-135.039	 10.79604	  2.36078	  6.58855	  2.50211	  6.30763	 -0.07564	 11.07895	708.71997	 18.10	
  8.494	-146.194	 10.78102	  2.01682	  6.99183	  2.89356	  5.82379	 -0.08040	 11.07531	708.64001	 18.10	
  8.502	-157.493	 10.76622	  1.74982	  7.29862	  3.36485	  5.26946	 -0.09369	 11.07245	708.67999	 18.10	
  8.491	-168.704	 10.75103	  1.58279	  7.48055	  3.89577	  4.68194	 -0.09825	 11.07235	708.77002	 18.10	
  8.500	180.000	 10.73945	  1.50779	  7.54313	  4.45939	  4.09083	 -0.09045	 11.07424	708.73999	 18.20	
 10.200	180.000	 10.54633	  0.84424	  8.03510	  4.28887	  3.93228	 -0.19537	 11.06747	708.77002	 18.20	
 10.191	-170.497	 10.56640	  0.90698	  7.98823	  3.72570	  4.52862	 -0.20489	 11.07369	708.71997	 18.20	
 10.210	-161.034	 10.57122	  1.04079	  7.83044	  3.17269	  5.12971	 -0.20121	 11.06541	708.76001	 18.20	
 10.194	-151.526	 10.58824	  1.26796	  7.56289	  2.67882	  5.71066	 -0.18466	 11.07067	708.83002	 18.20	
 10.190	-142.105	 10.60331	  1.56148	  7.21150	  2.24731	  6.23986	 -0.17076	 11.07131	708.76001	 18.20	
 10.215	-132.646	 10.61104	  1.92353	  6.76889	  1.85848	  6.73077	 -0.17706	 11.06935	708.73999	 18.20	
 10.203	-123.092	 10.61961	  2.36759	  6.24997	  1.55115	  7.14114	 -0.18566	 11.06979	708.76001	 18.20	
 10.192	-113.678	 10.62718	  2.85242	  5.69747	  1.32630	  7.45346	 -0.18245	 11.06920	708.71002	 18.20	
 10.208	-104.249	 10.63261	  3.38992	  5.11038	  1.17344	  7.67528	 -0.17309	 11.06913	708.81000	 18.20	
 10.210	-94.801	 10.64007	  3.96755	  4.51431	  1.11516	  7.78153	 -0.16098	 11.06633	708.72998	 18.20	
 10.210	-85.199	 10.65075	  4.56806	  3.92054	  1.12618	  7.78164	 -0.16790	 11.07031	708.81000	 18.20	
 10.208	-75.751	 10.65128	  5.16282	  3.35888	  1.21031	  7.67003	 -0.16946	 11.06530	708.82001	 18.20	
 10.192	-66.322	 10.65807	  5.74213	  2.83483	  1.37700	  7.45095	 -0.15579	 11.06710	708.84003	 18.20	
 10.203	-56.908	 10.65592	  6.27934	  2.37048	  1.61940	  7.12847	 -0.13378	 11.06342	708.78003	 18.20	
 10.215	-47.354	 10.66174	  6.78114	  1.95223	  1.94282	  6.71700	 -0.12779	 11.06799	708.76001	 18.20	
 10.190	-37.895	 10.66132	  7.20194	  1.61068	  2.34172	  6.22466	 -0.11958	 11.06593	708.78998	 18.20	
 10.194	-28.474	 10.65283	  7.53831	  1.33213	  2.78360	  5.68746	 -0.09908	 11.06149	708.78003	 18.20	
 10.210	-18.966	 10.64550	  7.78887	  1.12652	  3.29039	  5.10791	 -0.07695	 11.06517	708.59998	 18.20	
 10.191	 -9.503	 10.63301	  7.92265	  1.01000	  3.84799	  4.50153	 -0.05575	 11.06475	708.72998	 18.20	
 10.200	  0.000	 10.61818	  7.94767	  0.96323	  4.42183	  3.90258	 -0.05144	 11.06005	708.72998	 18.20	
 10.191	  9.503	 10.61765	  7.87470	  1.00522	  5.02319	  3.32365	 -0.04460	 11.06907	708.78003	 18.30	
 10.210	 18.966	 10.59176	  7.68200	  1.11366	  5.61490	  2.76819	 -0.03683	 11.06436	708.76001	 18.20	
 10.194	 28.474	 10.58107	  7.38932	  1.31203	  6.17859	  2.26937	 -0.02926	 11.06470	708.79999	 18.30	
 10.190	 37.895	 10.57108	  7.00956	  1.58469	  6.69561	  1.83240	 -0.04123	 11.06224	708.84998	 18.30	
 10.215	 47.354	 10.56070	  6.54908	  1.93596	  7.17150	  1.43924	 -0.06946	 11.06153	708.78003	 18.30	
 10.203	 56.908	 10.54876	  6.01822	  2.35243	  7.55659	  1.12568	 -0.08666	 11.06208	708.71002	 18.30	
 10.192	 66.322	 10.54883	  5.45605	  2.82864	  7.85218	  0.89794	 -0.09531	 11.06356	708.73999	 18.30	
 10.208	 75.751	 10.53677	  4.86022	  3.35037	  8.04990	  0.73365	 -0.09838	 11.06318	708.83002	 18.30	
 10.210	 85.199	 10.52905	  4.25725	  3.91125	  8.13997	  0.65673	 -0.11274	 11.06386	708.73999	 18.30	
 10.210	 94.801	 10.52052	  3.66681	  4.50755	  8.12428	  0.65577	 -0.14089	 11.06325	708.82001	 18.30	
 10.208	104.249	 10.50500	  3.10169	  5.10667	  8.00286	  0.73517	 -0.15410	 11.05994	708.77002	 18.30	
 10.192	113.678	 10.49892	  2.58951	  5.68859	  7.78005	  0.89609	 -0.15961	 11.06036	708.84998	 18.30	
 10.203	123.092	 10.49750	  2.12813	  6.23783	  7.47090	  1.12751	 -0.15203	 11.06263	708.83002	 18.30	
 10.215	132.646	 10.49521	  1.72041	  6.74895	  7.05769	  1.44273	 -0.16317	 11.06116	708.90002	 18.30	
 10.190	142.105	 10.50440	  1.39239	  7.19386	  6.57264	  1.83502	 -0.17894	 11.06439	708.81000	 18.30	
 10.194	151.526	 10.51229	  1.13676	  7.55106	  6.04651	  2.27832	 -0.19005	 11.06604	708.78998	 18.30	
 10.210	161.034	 10.50944	  0.95251	  7.81473	  5.47402	  2.77674	 -0.19025	 11.05507	708.64001	 18.30	
 10.191	170.497	 10.52771	  0.86175	  7.97611	  4.87989	  3.34295	 -0.19177	 11.05833	708.71997	 18.30	
 11.899	171.783	 10.30468	  0.21062	  8.44630	  4.68583	  3.15859	 -0.28881	 11.06228	708.72998	 18.30	
 11.890	163.610	 10.28675	  0.29083	  8.29941	  5.28174	  2.59773	 -0.29213	 11.05742	708.71002	 18.30	
 11.889	155.445	 10.28163	  0.43384	  8.06998	  5.86039	  2.08174	 -0.29951	 11.05974	708.72998	 18.30	
 11.909	147.299	 10.27094	  0.63912	  7.75732	  6.41942	  1.60836	 -0.29129	 11.05755	708.78003	 18.30	
 11.902	139.148	 10.27067	  0.91411	  7.36235	  6.94451	  1.18851	 -0.28530	 11.06510	708.71997	 18.30	
 11.894	130.867	 10.26713	  1.26687	  6.89120	  7.42131	  0.82385	 -0.27076	 11.06505	708.84003	 18.30	
 11.897	122.732	 10.26937	  1.66511	  6.37334	  7.81509	  0.53461	 -0.26097	 11.06129	708.76001	 18.30	
 11.903	114.597	 10.27334	  2.12116	  5.81748	  8.14160	  0.30487	 -0.27227	 11.06359	708.78998	 18.30	
 11.893	106.346	 10.28461	  2.63484	  5.22901	  8.38604	  0.14252	 -0.27617	 11.06775	708.69000	 18.30	
 11.892	 98.155	 10.29233	  3.19105	  4.61856	  8.53441	  0.04264	 -0.26444	 11.06290	708.71002	 18.30	
 11.900	 90.000	 10.29550	  3.75935	  4.02107	  8.59801	  0.00613	 -0.24391	 11.05884	708.69000	 18.40	
 11.892	 81.845	 10.30816	  4.35650	  3.44169	  8.56635	  0.04217	 -0.22785	 11.06075	708.75000	 18.40	
 11.893	 73.654	 10.31951	  4.97209	  2.88596	  8.44409	  0.13915	 -0.22235	 11.06522	708.72998	 18.40	
 11.903	 65.403	 10.32175	  5.56672	  2.36412	  8.22650	  0.29577	 -0.21825	 11.06289	708.76001	 18.40	
 11.897	 57.268	 10.33335	  6.13822	  1.90194	  7.92586	  0.52794	 -0.20357	 11.06623	708.73999	 18.40	
 11.894	 49.133	 10.33730	  6.67076	  1.48580	  7.55033	  0.81049	 -0.18685	 11.06762	708.75000	 18.40	
 11.902	 40.852	 10.34776	  7.16587	  1.11909	  7.09276	  1.17018	 -0.15580	 11.06688	708.79999	 18.40	
 11.909	 32.701	 10.35529	  7.58183	  0.82513	  6.57810	  1.58833	 -0.13828	 11.06557	708.76001	 18.40	
 11.889	 24.555	 10.37965	  7.91636	  0.60844	  6.03412	  2.06304	 -0.13169	 11.06931	708.75000	 18.40	
 11.890	 16.390	 10.39592	  8.17806	  0.45272	  5.45959	  2.57476	 -0.14467	 11.07403	708.70001	 18.40	
 11.899	  8.217	 10.40348	  8.34520	  0.34981	  4.85344	  3.12921	 -0.15167	 11.06818	708.75000	 18.40	
 11.900	  0.000	 10.41441	  8.41833	  0.31514	  4.25665	  3.71511	 -0.15511	 11.06579	708.73999	 18.40	
 11.899	 -8.217	 10.43328	  8.39996	  0.35178	  3.67844	  4.31508	 -0.15701	 11.07117	708.78003	 18.40	
 11.890	-16.390	 10.44079	  8.27669	  0.45778	  3.11608	  4.92576	 -0.17402	 11.06017	708.66998	 18.40	
 11.889	-24.555	 10.44722	  8.07093	  0.62181	  2.60370	  5.51549	 -0.19707	 11.06292	708.84998	 18.40	
 11.909	-32.701	 10.45937	  7.78512	  0.84780	  2.12761	  6.08881	 -0.21596	 11.07023	708.71997	 18.40	
 11.902	-40.852	 10.45655	  7.40298	  1.13836	  1.69892	  6.62105	 -0.23098	 11.06467	708.84003	 18.40	
 11.894	-49.133	 10.45469	  6.94441	  1.50522	  1.32712	  7.09443	 -0.23020	 11.06020	708.71997	 18.40	
 11.897	-57.268	 10.45742	  6.43907	  1.92247	  1.02469	  7.50445	 -0.24080	 11.06548	708.81000	 18.40	
 11.903	-65.403	 10.45374	  5.89637	  2.38314	  0.79175	  7.82347	 -0.24709	 11.06754	708.70001	 18.40	
 11.893	-73.654	 10.44917	  5.30851	  2.89915	  0.61936	  8.06548	 -0.25883	 11.06360	708.65997	 18.40	
 11.892	-81.845	 10.44718	  4.70907	  3.45579	  0.51363	  8.21647	 -0.25288	 11.06799	708.78998	 18.40	
 11.900	-90.000	 10.43453	  4.11335	  4.03721	  0.46971	  8.26582	 -0.24686	 11.06608	708.76001	 18.40	
 11.892	-98.155	 10.43481	  3.52837	  4.63769	  0.48992	  8.22065	 -0.24522	 11.07127	708.72998	 18.40	
 11.893	-106.346	 10.42577	  2.95492	  5.24347	  0.57542	  8.07786	 -0.25338	 11.06731	708.77002	 18.40	
 11.903	-114.597	 10.41324	  2.42262	  5.83559	  0.73115	  7.84253	 -0.26187	 11.06690	708.78003	 18.40	
 11.897	-122.732	 10.40734	  1.94384	  6.38755	  0.94826	  7.52347	 -0.26574	 11.06791	708.79999	 18.40	
 11.894	-130.867	 10.39835	  1.50597	  6.90610	  1.23356	  7.12451	 -0.26294	 11.07102	708.76001	 18.40	
 11.902	-139.148	 10.39273	  1.12234	  7.37441	  1.59403	  6.64531	 -0.25587	 11.07147	708.82001	 18.40	
 11.909	-147.299	 10.37736	  0.81352	  7.76758	  2.00744	  6.11850	 -0.26447	 11.06894	708.71997	 18.50	
 11.889	-155.445	 10.36561	  0.56923	  8.08022	  2.46621	  5.55841	 -0.27675	 11.06212	708.76001	 18.50	
 11.890	-163.610	 10.35599	  0.37730	  8.31393	  2.97215	  4.96633	 -0.29438	 11.06953	708.71002	 18.50	
 11.899	-171.783	 10.33980	  0.25427	  8.45812	  3.52462	  4.35584	 -0.30087	 11.07035	708.70001	 18.50	
 11.900	180.000	 10.31873	  0.20039	  8.49176	  4.09214	  3.75014	 -0.29597	 11.05939	708.71997	 18.50	
 13.600	180.000	 10.05931	 -0.43380	  8.93286	  3.86788	  3.54247	 -0.37434	 11.06672	708.71002	 18.50	
 13.608	-172.853	 10.06950	 -0.39634	  8.89726	  3.30328	  4.12797	 -0.37965	 11.06865	708.64001	 18.50	
 13.611	-165.583	 10.08102	 -0.29740	  8.77525	  2.74297	  4.75087	 -0.37000	 11.06399	708.66998	 18.50	
 13.601	-158.353	 10.09919	 -0.12950	  8.56419	  2.22976	  5.35482	 -0.35239	 11.06938	708.70001	 18.50	
 13.609	-151.210	 10.11286	  0.08816	  8.28016	  1.75960	  5.93554	 -0.33167	 11.06785	708.71997	 18.50	
 13.611	-143.999	 10.12341	  0.36093	  7.91935	  1.32328	  6.49720	 -0.31298	 11.06928	708.63000	 18.50	
 13.601	-136.825	 10.13820	  0.68523	  7.50116	  0.93880	  7.01422	 -0.31086	 11.07260	708.65997	 18.50	
 13.596	-129.640	 10.14819	  1.06419	  7.02437	  0.62204	  7.47026	 -0.31188	 11.06990	708.73999	 18.50	
