FileType=PCF
NHL=14
Date=05/29/19	16:16:05
Facility=APL
Serial=16071-5
Customer=NASA
NP=6
Mach=0.550000
Calibration=1:1
CalPts=490
TstPts=95
PortNumbering=AP Standard
Units=Torr C m/s kg/m^3 deg mm 
Theta[deg]	Phi[deg]	P1[Torr]	P2[Torr]	P3[Torr]	P4[Torr]	P5[Torr]	P6[Torr]	Pt[Torr]	Ps[Abs,Torr]	Ts[C]	
  0.000	  0.000	159.91479	 76.19063	 76.07630	 73.39113	 76.08233	  5.95466	159.78114	701.28998	 44.20	
  1.691	128.401	159.86098	 71.44768	 80.59256	 79.18595	 70.09284	  5.86835	159.74605	701.32001	 44.20	
  1.692	 77.194	159.93864	 77.58177	 74.35965	 80.93587	 68.51090	  5.90695	159.81787	701.25000	 44.20	
  1.699	 26.182	159.98997	 82.66270	 68.99953	 77.01155	 72.46516	  5.88593	159.88953	701.15997	 44.30	
  1.699	-26.182	160.00694	 82.87438	 68.91675	 69.96510	 79.03263	  5.79684	159.89346	701.07001	 44.30	
  1.692	-77.194	160.00491	 77.68949	 74.21065	 65.57538	 83.10413	  5.73461	159.90350	701.13000	 44.30	
  1.691	-128.401	160.03288	 71.59508	 80.60898	 66.92601	 81.86743	  5.75642	159.93582	701.19000	 44.40	
  1.700	180.000	160.08463	 68.74531	 83.70971	 73.10700	 76.16128	  5.80347	159.99069	701.21002	 44.40	
  3.400	180.000	159.76218	 60.59352	 91.30448	 72.29132	 75.77671	  5.32968	159.94333	701.17999	 44.50	
  3.388	-152.325	159.79471	 62.68076	 89.29439	 64.93288	 82.49203	  5.30502	159.96393	701.15002	 44.50	
  3.397	-124.529	159.79402	 67.50747	 84.03602	 58.78889	 88.12937	  5.30112	159.95676	701.19000	 44.60	
  3.399	-96.763	159.88794	 74.28300	 77.08711	 56.49067	 90.80654	  5.25999	160.04660	701.19000	 44.60	
  3.394	-69.283	159.88310	 81.08626	 69.93742	 57.56619	 89.67229	  5.29361	160.00082	701.15997	 44.60	
  3.400	-41.398	159.97118	 86.72706	 63.23111	 62.24357	 85.10476	  5.30277	160.07475	701.15997	 44.60	
  3.401	-14.021	159.99550	 89.97442	 59.92159	 69.51498	 78.69984	  5.34894	160.05771	701.23999	 44.60	
  3.401	 14.021	160.05746	 89.89407	 59.99698	 77.36338	 71.32826	  5.45062	160.10980	701.25000	 44.70	
  3.400	 41.398	160.03799	 86.58845	 63.43076	 83.82946	 65.32534	  5.53405	160.09061	701.31000	 44.80	
  3.394	 69.283	160.12375	 80.79585	 70.29089	 88.10053	 61.64944	  5.57581	160.19067	701.17999	 44.80	
  3.399	 96.763	160.10477	 73.85045	 77.57774	 88.87241	 60.83285	  5.58698	160.17247	701.16998	 44.90	
  3.397	124.529	160.11974	 67.15257	 84.50176	 85.80041	 63.34439	  5.50854	160.21286	701.16998	 44.90	
  3.388	152.325	160.08362	 62.53794	 89.64761	 79.78797	 68.73417	  5.37618	160.22134	701.16998	 44.90	
  5.099	161.165	159.35965	 53.91027	 97.33302	 78.94762	 67.79359	  4.72070	160.18953	701.20001	 44.90	
  5.109	142.013	159.44063	 57.15789	 93.70626	 86.13053	 61.35807	  4.80472	160.23575	701.21997	 44.90	
  5.095	123.033	159.52643	 62.53521	 87.74942	 91.89667	 56.96627	  4.95374	160.23389	701.20001	 44.90	
  5.105	104.191	159.56671	 69.29822	 80.59795	 95.46220	 54.28611	  4.99374	160.25609	701.19000	 44.90	
  5.093	 85.207	159.67126	 76.76312	 73.07954	 96.31895	 53.72388	  5.04581	160.31560	701.20001	 45.00	
  5.104	 66.290	159.68317	 83.77363	 64.90791	 94.48601	 55.46528	  5.03266	160.28433	701.21997	 45.00	
  5.094	 47.331	159.64128	 89.78522	 58.51608	 90.12823	 59.13892	  5.00136	160.26813	701.16998	 45.00	
  5.089	 28.397	159.67201	 94.43127	 54.11384	 84.12157	 64.31156	  4.93433	160.28352	701.28998	 45.00	
  5.096	  9.576	159.69380	 97.29459	 51.69244	 76.86166	 70.55744	  4.85604	160.29416	701.21997	 45.00	
  5.096	 -9.576	159.71092	 97.52987	 51.61937	 68.81081	 78.06433	  4.82920	160.35455	701.19000	 45.00	
  5.089	-28.397	159.62918	 94.82156	 53.87739	 60.97925	 85.02653	  4.73946	160.29689	701.19000	 45.00	
  5.094	-47.331	159.62703	 90.20812	 58.13420	 54.91007	 91.45948	  4.75007	160.35129	701.14001	 45.00	
  5.104	-66.290	159.59412	 84.33778	 64.48882	 50.62928	 96.01099	  4.70548	160.36406	701.15997	 45.00	
  5.093	-85.207	159.57518	 77.40641	 72.77304	 48.47211	 97.89415	  4.73487	160.40289	701.17999	 45.00	
  5.105	-104.191	159.56706	 70.18810	 80.33136	 48.81486	 97.34949	  4.72648	160.42648	701.23999	 44.90	
  5.095	-123.033	159.50629	 63.36732	 87.33640	 51.80988	 94.35471	  4.68130	160.41504	701.16998	 44.90	
  5.109	-142.013	159.49765	 57.91153	 93.49851	 56.63961	 89.10876	  4.68738	160.40961	701.14001	 44.80	
  5.099	-161.165	159.52084	 54.26439	 97.35506	 63.86612	 82.36647	  4.69536	160.40584	701.21997	 44.90	
  5.100	180.000	159.56561	 52.91548	 98.68125	 71.50354	 75.23787	  4.66947	160.44200	701.17999	 44.90	
  6.800	180.000	158.33614	 44.98471	105.65807	 70.04529	 74.19658	  4.16673	160.46057	701.13000	 44.90	
  6.796	-166.229	158.31673	 45.98126	104.58293	 62.44802	 81.45625	  4.17909	160.44666	701.22998	 44.90	
  6.808	-152.311	158.29582	 48.49409	101.79755	 55.53888	 88.07832	  4.21788	160.47307	701.09003	 44.90	
  6.795	-138.383	158.28552	 52.62476	 97.17298	 49.48306	 94.38760	  4.21455	160.46594	701.13000	 45.00	
  6.792	-124.591	158.39995	 58.02531	 91.27306	 44.76535	 99.39050	  4.19007	160.53293	701.15002	 45.00	
  6.787	-110.754	158.37703	 64.26534	 84.41564	 41.59657	102.68810	  4.19933	160.49875	700.97998	 45.10	
  6.800	-96.985	158.41168	 71.12952	 77.21841	 40.00354	104.61329	  4.24849	160.51622	701.00000	 45.20	
  6.800	-83.015	158.47830	 78.40070	 69.59946	 40.24585	104.47435	  4.23938	160.53363	701.12000	 45.30	
  6.787	-69.246	158.51891	 85.28114	 61.71990	 41.98460	102.58317	  4.24978	160.53372	701.07001	 45.30	
  6.792	-55.409	158.60138	 91.13798	 55.14557	 45.45953	 99.17882	  4.30349	160.52570	701.17999	 45.30	
  6.795	-41.617	158.63322	 96.98575	 50.18951	 50.47234	 93.88680	  4.32091	160.51044	701.09998	 45.30	
  6.808	-27.689	158.76671	101.45644	 46.63927	 56.97434	 87.24496	  4.35375	160.55359	701.13000	 45.30	
  6.796	-13.771	158.78673	104.20610	 44.35095	 64.39397	 80.27363	  4.44401	160.55774	701.08002	 45.30	
  6.800	  0.000	158.80460	104.83019	 43.71487	 72.05052	 73.10616	  4.46672	160.52058	701.15997	 45.30	
  6.796	 13.771	158.81082	103.77763	 44.56783	 79.58742	 66.60816	  4.44984	160.53773	701.03998	 45.30	
  6.808	 27.689	158.84186	100.80658	 46.84293	 86.78489	 60.33326	  4.48415	160.56923	701.12000	 45.30	
  6.795	 41.617	158.86090	 96.12063	 50.59150	 93.03823	 54.84160	  4.50065	160.57118	701.15002	 45.40	
  6.792	 55.409	158.89900	 90.31121	 55.84265	 98.11539	 50.49525	  4.50495	160.58269	701.23999	 45.30	
  6.787	 69.246	158.92018	 84.21965	 62.30093	101.62827	 47.36342	  4.49019	160.60622	701.17999	 45.30	
  6.800	 83.015	158.89545	 77.51045	 70.12015	103.42836	 45.58168	  4.52625	160.59526	701.20001	 45.30	
  6.800	 96.985	158.82872	 70.11599	 77.78079	103.21897	 45.75327	  4.46015	160.59218	701.07001	 45.30	
  6.787	110.754	158.79625	 63.28639	 85.02937	101.08296	 47.50092	  4.54791	160.62714	701.08002	 45.30	
  6.792	124.591	158.75023	 57.04582	 91.81459	 97.26579	 50.70969	  4.51113	160.63026	701.13000	 45.30	
  6.795	138.383	158.71725	 52.03686	 97.67520	 91.83225	 55.20147	  4.41451	160.64413	701.01001	 45.30	
  6.808	152.311	158.60768	 48.16133	102.03653	 84.93424	 60.62307	  4.27679	160.59343	701.09003	 45.40	
  6.796	166.229	158.57814	 45.84644	104.74613	 77.69659	 67.05736	  4.25264	160.62042	700.95001	 45.40	
  8.491	168.704	156.84612	 36.43870	111.72965	 76.29391	 65.64414	  4.07825	160.62653	701.15002	 45.50	
  8.502	157.493	156.94542	 38.75132	109.33487	 83.56453	 59.02586	  4.11335	160.63713	701.00000	 45.50	
  8.494	146.194	157.03603	 42.54858	105.54230	 90.84650	 52.80002	  4.19456	160.64987	700.98999	 45.60	
  8.495	135.039	157.09918	 46.88344	100.57011	 97.43589	 47.45933	  4.24838	160.68225	701.09003	 45.60	
  8.487	123.723	157.16632	 52.18009	 94.34655	102.78529	 42.82530	  4.23442	160.67076	701.09003	 45.60	
  8.492	112.575	157.21815	 58.00154	 87.54894	107.03300	 39.08289	  4.17162	160.68509	701.00000	 45.50	
  8.510	101.220	157.36591	 65.15941	 80.18104	109.55345	 36.83341	  4.06180	160.72128	700.97998	 45.50	
  8.500	 90.000	157.44022	 72.45815	 72.61583	110.49887	 36.43425	  4.04321	160.69612	701.10999	 45.50	
  8.510	 78.780	157.48695	 79.63163	 64.39691	109.85232	 36.91527	  4.09344	160.69954	701.08002	 45.50	
  8.492	 67.425	157.53001	 86.63122	 57.12500	107.61822	 38.98746	  4.09096	160.75964	701.14001	 45.50	
  8.487	 56.277	157.44562	 92.75676	 50.87491	103.70409	 42.61002	  4.09142	160.67102	701.12000	 45.50	
  8.495	 44.961	157.50900	 99.11599	 45.68170	 98.69725	 47.14502	  4.11509	160.75992	701.08002	 45.60	
  8.494	 33.806	157.44772	104.21726	 41.88861	 92.69328	 52.42962	  4.20840	160.71172	701.03998	 45.60	
  8.502	 22.507	157.42606	108.41038	 38.41359	 85.69812	 58.35085	  4.26877	160.72272	701.01001	 45.70	
  8.491	 11.296	157.41699	110.78821	 36.36821	 78.49937	 65.14503	  4.33228	160.70653	701.03003	 45.70	
  8.500	  0.000	157.39865	111.95898	 35.48825	 70.71304	 71.99994	  4.37330	160.74031	701.06000	 45.70	
  8.491	-11.296	157.38387	111.25117	 36.07627	 62.94585	 79.18282	  4.40489	160.73080	700.97998	 45.70	
  8.502	-22.507	157.30513	108.97130	 37.70065	 55.51723	 86.24877	  4.36183	160.69418	701.01001	 45.60	
  8.494	-33.806	157.31874	105.06934	 41.10965	 48.39160	 93.39400	  4.39315	160.73647	701.09003	 45.60	
  8.495	-44.961	157.27969	100.03620	 45.44392	 42.57183	 99.72437	  4.31691	160.75842	701.03003	 45.60	
  8.487	-56.277	157.20639	 93.98236	 50.47952	 38.07970	104.40971	  4.30854	160.78130	701.02002	 45.60	
  8.492	-67.425	157.05882	 87.79901	 56.19936	 34.97993	108.48889	  4.25499	160.76497	700.98999	 45.70	
  8.510	-78.780	156.94844	 80.71055	 64.11823	 33.09471	111.42911	  4.21816	160.75223	700.96002	 45.70	
  8.500	-90.000	156.92261	 73.70482	 71.81446	 32.31495	112.20348	  4.24119	160.77736	701.02002	 45.70	
  8.510	-101.220	156.84534	 66.40880	 79.45935	 32.46225	111.55204	  4.14018	160.78314	701.00000	 45.80	
  8.492	-112.575	156.90393	 59.47195	 86.99995	 33.85571	108.89674	  4.10106	160.79941	700.98999	 45.90	
  8.487	-123.723	156.86984	 53.15664	 93.83755	 36.96273	104.78433	  4.07070	160.79228	701.01001	 45.90	
  8.495	-135.039	156.90543	 47.77404	100.16881	 41.29523	100.08800	  4.09916	160.82207	701.02002	 46.00	
  8.494	-146.194	156.90660	 43.28323	105.31234	 46.91365	 94.00424	  4.15130	160.78693	700.98999	 46.00	
  8.502	-157.493	156.91756	 39.56416	109.29179	 53.75376	 87.19930	  4.10528	160.81676	701.01001	 46.00	
  8.491	-168.704	156.93942	 37.12844	111.74271	 60.75260	 80.30383	  4.09208	160.81396	700.97998	 45.90	
  8.500	180.000	156.99954	 35.91822	112.67648	 68.57062	 72.80461	  4.06007	160.86110	700.91998	 46.00	
 10.200	180.000	154.76686	 26.61490	119.13895	 66.59655	 71.08802	  4.19541	160.81531	700.91998	 46.00	
 10.191	-170.497	154.77235	 27.43587	118.27106	 58.77396	 78.54269	  4.23852	160.87144	700.88000	 45.90	
 10.210	-161.034	154.65028	 28.97650	116.13761	 51.34003	 85.92535	  4.25867	160.83200	700.88000	 45.90	
 10.194	-151.526	154.70590	 32.28934	112.71535	 44.18979	 92.83396	  4.29877	160.85667	701.03003	 45.90	
 10.190	-142.105	154.67805	 36.38186	108.05083	 38.22234	 99.63245	  4.29339	160.86720	701.06000	 45.80	
 10.215	-132.646	154.61327	 41.45706	102.43453	 33.11021	105.20451	  4.30078	160.86618	701.03003	 45.90	
 10.203	-123.092	154.64111	 47.60362	 95.75965	 29.30127	110.45350	  4.30719	160.89972	700.96002	 45.90	
 10.192	-113.678	154.64687	 54.04002	 88.84649	 26.74884	114.62846	  4.29134	160.84984	701.02002	 45.90	
 10.208	-104.249	154.66365	 61.12234	 81.32483	 24.93111	117.37688	  4.35786	160.88799	700.95001	 45.90	
 10.210	-94.801	154.66669	 68.30566	 73.60636	 24.10203	118.63442	  4.40333	160.86687	700.91998	 45.90	
 10.210	-85.199	154.69841	 75.64162	 65.82159	 24.34417	118.57646	  4.45476	160.85616	701.06000	 46.00	
 10.208	-75.751	154.74348	 82.92104	 57.96642	 25.38498	117.14201	  4.43804	160.81073	701.00000	 45.90	
 10.192	-66.322	154.95236	 89.49382	 51.41409	 27.70193	114.29002	  4.51664	160.85860	701.01001	 45.90	
 10.203	-56.908	155.08504	 96.22514	 45.48728	 30.98613	109.81712	  4.55782	160.88588	701.09998	 45.90	
 10.215	-47.354	155.14359	102.79101	 39.92289	 34.96738	104.73769	  4.51926	160.85757	700.95001	 45.90	
 10.190	-37.895	155.36578	108.20797	 35.46891	 39.91372	 98.99281	  4.59657	160.91238	701.03003	 45.80	
 10.194	-28.474	155.47771	112.54374	 31.85898	 46.35175	 92.04992	  4.59193	160.89328	701.06000	 45.80	
 10.210	-18.966	155.49081	115.90469	 29.31138	 54.10499	 84.74739	  4.58737	160.85254	701.09998	 45.80	
 10.191	 -9.503	155.52760	117.73380	 27.97609	 61.58482	 77.44495	  4.55861	160.86540	701.14001	 45.90	
 10.200	  0.000	155.59077	118.25823	 27.53026	 69.37096	 70.43333	  4.51020	160.89632	701.10999	 45.90	
 10.191	  9.503	155.50955	117.55449	 28.03918	 77.06856	 63.06469	  4.38296	160.88298	701.06000	 46.00	
 10.210	 18.966	155.49208	115.47208	 29.57768	 84.43034	 55.98418	  4.34006	160.90193	701.13000	 46.00	
 10.194	 28.474	155.54689	111.81391	 32.42794	 91.71593	 49.45795	  4.21381	160.91405	701.03003	 46.10	
 10.190	 37.895	155.68626	107.33902	 36.37575	 98.46512	 43.16278	  4.11492	161.04256	701.03998	 46.10	
 10.215	 47.354	155.57967	101.56818	 41.01270	104.33442	 38.41010	  4.05395	160.91953	700.98999	 46.10	
 10.203	 56.908	155.58313	 94.97069	 46.32675	109.42522	 35.08889	  3.97966	160.89531	701.09998	 46.10	
 10.192	 66.322	155.67920	 88.29018	 52.08456	113.23280	 32.45043	  3.98379	160.92879	700.96997	 46.20	
 10.208	 75.751	155.61935	 81.62107	 58.83712	115.95623	 30.47433	  3.90306	160.87607	701.15997	 46.20	
 10.210	 85.199	155.65958	 74.38165	 66.81720	117.31249	 29.68255	  3.92892	160.91951	700.96997	 46.20	
 10.210	 94.801	155.58923	 66.93382	 74.92809	117.09890	 29.85721	  3.94977	160.95695	701.03998	 46.20	
 10.208	104.249	155.46843	 59.69821	 82.49607	115.40668	 30.90219	  3.97345	160.95343	701.17999	 46.20	
 10.192	113.678	155.46025	 53.00095	 89.97020	112.34599	 32.81456	  4.11227	160.97974	701.15002	 46.20	
 10.203	123.092	155.35893	 46.69474	 96.91837	108.28776	 34.39257	  4.15639	160.96962	701.03998	 46.20	
 10.215	132.646	155.19601	 40.42379	103.29018	102.97855	 38.22938	  4.29398	160.96602	701.09003	 46.20	
 10.190	142.105	155.14563	 35.57775	108.57354	 96.76357	 43.68453	  4.30790	160.93204	701.13000	 46.30	
 10.194	151.526	155.15092	 31.56627	113.16297	 89.37130	 50.35696	  4.33570	160.96716	701.09998	 46.40	
 10.210	161.034	155.03258	 28.77150	116.45196	 82.07501	 57.09050	  4.20453	160.95076	701.07001	 46.50	
 10.191	170.497	155.03188	 27.38508	118.52565	 74.67675	 64.13642	  4.19375	161.02161	701.00000	 46.50	
 11.899	171.783	152.24615	 19.95738	124.53583	 72.48962	 61.75668	  4.47918	160.98410	701.08002	 46.50	
 11.890	163.610	152.29108	 20.93685	122.83990	 80.17628	 54.56765	  4.55363	160.95744	701.01001	 46.50	
 11.889	155.445	152.45708	 22.86082	119.95072	 87.25877	 47.07244	  4.62625	161.01166	701.03998	 46.50	
 11.909	147.299	152.48071	 25.47451	116.05280	 94.90442	 40.39274	  4.62355	161.00342	701.06000	 46.50	
 11.902	139.148	152.54900	 29.30952	111.18359	101.82082	 35.09442	  4.54618	161.00587	701.07001	 46.50	
 11.894	130.867	152.64291	 34.17623	105.33550	108.00088	 32.32798	  4.48222	160.98970	701.00000	 46.50	
 11.897	122.732	152.74936	 39.93374	 98.81336	113.16985	 28.74549	  4.27250	160.98090	701.07001	 46.50	
 11.903	114.597	152.84003	 46.53119	 91.64210	117.47559	 25.67871	  4.23788	161.00594	701.08002	 46.50	
 11.893	106.346	152.90651	 53.78326	 84.29798	120.56040	 23.49409	  4.18596	160.96559	701.03998	 46.40	
 11.892	 98.155	153.07959	 61.02834	 76.64307	122.55077	 22.17346	  4.16871	161.01360	701.04999	 46.30	
 11.900	 90.000	153.15836	 68.48408	 68.65191	123.23943	 21.73020	  4.15231	160.98508	701.00000	 46.30	
 11.892	 81.845	153.27869	 75.85764	 60.89926	122.84130	 22.11760	  4.16761	161.00415	700.97998	 46.30	
 11.893	 73.654	153.23964	 83.16001	 53.39677	121.31608	 23.05299	  4.14695	161.00131	701.01001	 46.30	
 11.903	 65.403	153.13635	 89.76534	 47.07417	118.47540	 24.96722	  4.18018	160.95845	701.09998	 46.30	
 11.897	 57.268	153.14418	 96.85972	 41.09201	114.35845	 28.03265	  4.23012	160.98175	701.07001	 46.30	
 11.894	 49.133	153.12857	103.51613	 35.47840	109.53884	 31.85314	  4.35154	160.97548	701.07001	 46.40	
 11.902	 40.852	153.11072	109.58632	 30.53402	103.54909	 36.07492	  4.33801	161.00652	700.96002	 46.40	
 11.909	 32.701	153.09764	114.66815	 26.46314	 97.03706	 40.26096	  4.45090	160.99413	701.15002	 46.50	
 11.889	 24.555	153.08327	118.72192	 23.33450	 89.84144	 46.38062	  4.50639	160.98726	701.13000	 46.50	
 11.890	 16.390	153.07227	121.80793	 21.03351	 82.65572	 53.30605	  4.56497	161.00517	701.02002	 46.50	
 11.899	  8.217	153.06551	123.85326	 19.63868	 75.05416	 60.68747	  4.67235	160.98688	701.09003	 46.40	
 11.900	  0.000	153.15097	124.69511	 19.33990	 67.28843	 68.13209	  4.73995	161.06273	701.15002	 46.40	
 11.899	 -8.217	153.09987	124.30643	 19.47495	 59.50140	 75.41957	  4.78162	161.02292	701.07001	 46.40	
 11.890	-16.390	153.13684	122.53052	 20.83247	 52.11562	 82.78376	  4.80122	161.02573	701.08002	 46.40	
 11.889	-24.555	153.10178	119.70201	 22.78693	 44.63654	 90.05916	  4.84500	161.07841	701.12000	 46.30	
 11.909	-32.701	152.92192	115.76154	 25.60698	 37.46209	 97.49567	  4.86247	161.04414	701.14001	 46.30	
 11.902	-40.852	152.74060	110.86649	 29.42111	 32.22831	104.01374	  4.87286	161.01083	701.09003	 46.40	
 11.894	-49.133	152.66286	104.89865	 34.40084	 27.50311	109.69624	  4.89490	161.08704	701.14001	 46.40	
 11.897	-57.268	152.49719	 98.86094	 39.86684	 23.33035	114.95494	  4.81063	161.05029	701.21002	 46.50	
 11.903	-65.403	152.34456	 91.31734	 45.91589	 19.86720	119.37231	  4.80766	161.04906	701.13000	 46.50	
 11.893	-73.654	152.18704	 84.74159	 52.60689	 17.16605	122.31898	  4.73359	161.01212	701.15002	 46.50	
 11.892	-81.845	152.12643	 77.26371	 59.70043	 15.82062	124.13810	  4.72279	161.05869	701.19000	 46.50	
 11.900	-90.000	152.01558	 70.13790	 67.32845	 15.51843	124.74690	  4.64620	161.05023	701.16998	 46.50	
 11.892	-98.155	151.95137	 62.86514	 74.89242	 15.42230	124.29726	  4.69676	161.07297	701.15002	 46.50	
 11.893	-106.346	152.03647	 55.28441	 82.89221	 16.27223	122.67454	  4.65475	161.12538	701.21002	 46.50	
 11.903	-114.597	152.01215	 47.66853	 90.33352	 18.77048	119.83809	  4.69103	161.10710	701.04999	 46.50	
 11.897	-122.732	151.98515	 41.04857	 97.33639	 21.92185	115.74402	  4.66924	161.10461	701.13000	 46.50	
 11.894	-130.867	152.04242	 35.17548	104.34205	 25.76282	110.33857	  4.64079	161.10831	701.15002	 46.50	
 11.902	-139.148	152.02452	 29.96925	110.42984	 30.12777	104.67712	  4.63141	161.08417	701.15002	 46.50	
 11.909	-147.299	152.12450	 25.92382	115.52670	 35.33868	 98.38754	  4.59829	161.11395	701.09003	 46.40	
 11.889	-155.445	152.17218	 22.83810	119.51607	 41.77846	 91.12404	  4.52634	161.05798	701.03998	 46.40	
 11.890	-163.610	152.16550	 20.56339	122.69102	 48.84620	 83.92820	  4.53935	161.06012	701.09998	 46.40	
 11.899	-171.783	152.20763	 19.40200	124.62433	 56.59687	 76.42445	  4.55751	161.07414	701.19000	 46.40	
 11.900	180.000	152.30849	 19.21294	125.31416	 64.42239	 69.04486	  4.47856	161.10349	701.25000	 46.50	
 13.600	180.000	149.06990	 10.86692	130.86826	 61.74191	 66.39462	  4.77618	161.13705	701.14001	 46.50	
 13.608	-172.853	148.99625	 11.16183	130.24979	 53.96698	 73.90418	  4.83419	161.15836	701.15002	 46.50	
 13.611	-165.583	148.92653	 12.34047	128.56067	 46.15067	 81.48417	  4.83540	161.12807	701.15002	 46.50	
 13.601	-158.353	148.95599	 14.54856	125.82146	 38.91430	 89.04605	  4.77335	161.12138	701.06000	 46.50	
 13.609	-151.210	148.87648	 17.23687	122.13188	 32.66562	 96.39827	  4.73713	161.08917	701.17999	 46.50	
 13.611	-143.999	148.80019	 20.62727	117.43571	 27.20775	103.26312	  4.78901	161.13704	701.14001	 46.60	
 13.601	-136.825	148.81090	 24.63655	111.89953	 22.00479	109.16508	  4.81126	161.14951	701.19000	 46.60	
 13.596	-129.640	148.74918	 29.26143	105.64607	 17.34457	114.93559	  4.89138	161.13860	701.16998	 46.60	
