FileType=PCF
NHL=14
Date=03/11/19	11:58:31
Facility=APL
Serial=16071-5
Customer=NASA
NP=6
Mach=0.450000
Calibration=1:1
CalPts=490
TstPts=95
PortNumbering=AP Standard
Units=Torr C m/s kg/m^3 deg mm 
Theta[deg]	Phi[deg]	P1[Torr]	P2[Torr]	P3[Torr]	P4[Torr]	P5[Torr]	P6[Torr]	Pt[Torr]	Ps[Abs,Torr]	Ts[C]	
  0.000	  0.000	 92.20973	 39.64427	 40.64962	 43.78481	 36.49463	  1.85367	 92.02497	711.39001	 36.30	
  1.691	128.401	 92.15241	 36.36118	 43.56158	 47.45300	 33.24164	  1.72343	 92.06033	711.58002	 36.40	
  1.692	 77.194	 92.18537	 40.35841	 39.44993	 48.55053	 32.43971	  1.85283	 92.07147	711.46997	 36.40	
  1.699	 26.182	 92.24348	 43.97829	 36.23148	 45.99053	 34.26189	  1.94999	 92.08938	711.59998	 36.40	
  1.699	-26.182	 92.29924	 44.24636	 36.34262	 41.73833	 38.54856	  1.88978	 92.11790	711.58002	 36.50	
  1.692	-77.194	 92.31651	 40.94438	 39.67962	 39.16229	 41.45760	  1.78146	 92.12766	711.56000	 36.50	
  1.691	-128.401	 92.28656	 36.84634	 43.81744	 39.93583	 40.35518	  1.69161	 92.09704	711.56000	 36.50	
  1.700	180.000	 92.20953	 34.70407	 45.59756	 43.45684	 36.42556	  1.63810	 92.06297	711.65997	 36.60	
  3.400	180.000	 92.01643	 29.47689	 50.41597	 42.93101	 36.13862	  1.28559	 92.08969	711.56000	 36.60	
  3.388	-152.325	 92.18544	 30.92620	 49.35204	 38.65453	 40.85249	  1.32289	 92.15212	711.56000	 36.60	
  3.397	-124.529	 92.21814	 34.21749	 46.13769	 35.06773	 44.98822	  1.36673	 92.11391	711.58002	 36.70	
  3.399	-96.763	 92.26525	 38.66195	 41.65457	 33.62510	 46.76719	  1.45204	 92.11039	711.53998	 36.70	
  3.394	-69.283	 92.30632	 43.37911	 37.09312	 34.35186	 46.07831	  1.57309	 92.14244	711.54999	 36.80	
  3.400	-41.398	 92.28643	 47.31889	 33.16633	 37.07715	 42.99615	  1.67964	 92.13461	711.58002	 36.80	
  3.401	-14.021	 92.23238	 49.39046	 30.94228	 41.34687	 38.33130	  1.78541	 92.11542	711.59003	 36.90	
  3.401	 14.021	 92.11617	 49.08553	 30.84898	 45.94376	 34.30190	  1.81516	 92.12769	711.48999	 36.90	
  3.400	 41.398	 92.03331	 46.55171	 32.90558	 50.18599	 30.32144	  1.77232	 92.15115	711.59998	 36.90	
  3.394	 69.283	 91.91969	 42.24266	 36.64710	 52.68078	 27.76554	  1.65996	 92.11259	711.45001	 37.00	
  3.399	 96.763	 91.87177	 37.55641	 41.22503	 53.12630	 27.25515	  1.51826	 92.12993	711.51001	 37.00	
  3.397	124.529	 91.93978	 33.34296	 45.79170	 51.36250	 28.93781	  1.41002	 92.18472	711.56000	 37.00	
  3.388	152.325	 91.95737	 30.40659	 49.11961	 47.60093	 32.34364	  1.31137	 92.11645	711.53998	 37.00	
  5.099	161.165	 91.46188	 25.75485	 54.10300	 47.05540	 31.73310	  0.80223	 92.19916	711.59003	 37.10	
  5.109	142.013	 91.35992	 27.65269	 51.61352	 51.58734	 27.54869	  0.87123	 92.20840	711.53003	 37.10	
  5.095	123.033	 91.26775	 30.01039	 47.73940	 54.93561	 24.34982	  0.96314	 92.19615	711.53003	 37.20	
  5.105	104.191	 91.24111	 34.30996	 43.07375	 57.04817	 22.32475	  1.04972	 92.18859	711.52002	 37.20	
  5.093	 85.207	 91.31321	 39.12749	 38.24419	 57.56928	 21.90454	  1.19517	 92.19274	711.56000	 37.20	
  5.104	 66.290	 91.37584	 43.97035	 33.62389	 56.57990	 22.85684	  1.30431	 92.19254	711.51001	 37.20	
  5.094	 47.331	 91.49617	 48.46766	 29.46535	 53.97517	 25.51845	  1.41580	 92.20441	710.87000	 37.30	
  5.089	 28.397	 91.59776	 51.89569	 26.75866	 50.15805	 29.28792	  1.53676	 92.16513	711.53003	 37.30	
  5.096	  9.576	 91.75970	 54.08121	 25.47971	 45.56436	 33.78977	  1.56431	 92.17557	711.45001	 37.30	
  5.096	 -9.576	 91.88892	 54.40881	 25.65579	 40.82941	 37.78994	  1.51500	 92.15468	711.48999	 37.30	
  5.089	-28.397	 92.02193	 52.96241	 27.34176	 36.14692	 42.79606	  1.42579	 92.17091	711.51001	 37.40	
  5.094	-47.331	 92.10061	 49.84827	 30.12865	 32.39180	 47.22636	  1.32420	 92.19262	711.53003	 37.40	
  5.104	-66.290	 92.12310	 45.66743	 34.15804	 29.74446	 50.18120	  1.20784	 92.18307	711.63000	 37.40	
  5.093	-85.207	 92.14032	 40.81487	 38.82469	 28.60218	 51.48199	  1.09558	 92.17540	711.58002	 37.50	
  5.105	-104.191	 92.09904	 35.99283	 43.80054	 28.75238	 51.14108	  0.98281	 92.20170	711.45001	 37.50	
  5.095	-123.033	 92.01617	 31.49384	 48.25645	 30.40983	 49.06485	  0.91873	 92.17790	711.57001	 37.50	
  5.109	-142.013	 91.90813	 28.64277	 52.16158	 33.41893	 45.56400	  0.84500	 92.17736	711.59998	 37.50	
  5.099	-161.165	 91.73026	 26.23769	 54.53711	 37.55024	 40.57378	  0.80535	 92.15740	711.54999	 37.60	
  5.100	180.000	 91.63490	 24.15299	 55.04014	 42.28381	 35.73555	  0.81767	 92.22137	711.56000	 37.60	
  6.800	180.000	 90.80238	 18.99051	 59.35573	 41.35540	 34.95562	  0.17672	 92.21597	711.58002	 37.60	
  6.796	-166.229	 90.95007	 19.73014	 58.93343	 36.65939	 39.70869	  0.16803	 92.18588	711.57001	 37.60	
  6.808	-152.311	 91.13942	 21.49068	 57.39605	 32.39474	 44.78236	  0.17392	 92.21977	711.57001	 37.70	
  6.795	-138.383	 91.24155	 24.24900	 54.55375	 28.76009	 49.06225	  0.22537	 92.14679	711.58002	 37.70	
  6.792	-124.591	 91.44538	 28.78485	 50.87560	 26.07241	 52.41847	  0.27874	 92.22996	711.67999	 37.70	
  6.787	-110.754	 91.54469	 32.15134	 46.44380	 24.18382	 54.80084	  0.34844	 92.22140	711.56000	 37.70	
  6.800	-96.985	 91.62888	 36.75858	 41.73551	 23.27730	 56.07065	  0.40679	 92.23337	711.52002	 37.80	
  6.800	-83.015	 91.67625	 41.51957	 36.98128	 23.37836	 56.03884	  0.50716	 92.24686	711.53003	 37.80	
  6.787	-69.246	 91.65794	 46.22322	 32.46942	 24.48623	 54.74376	  0.60855	 92.22011	711.59998	 37.80	
  6.792	-55.409	 91.64474	 50.58249	 28.39791	 26.62924	 52.22848	  0.73193	 92.22932	711.56000	 37.90	
  6.795	-41.617	 91.59373	 54.42578	 24.91744	 29.59116	 48.81258	  0.80335	 92.25234	711.58002	 37.90	
  6.808	-27.689	 91.50219	 57.25657	 22.21281	 33.43945	 44.23874	  0.93092	 92.23943	711.51001	 37.90	
  6.796	-13.771	 91.32316	 58.60899	 20.56375	 37.79186	 39.29917	  1.01581	 92.19984	711.53003	 37.90	
  6.800	  0.000	 91.14893	 58.91351	 19.90097	 42.49697	 35.35561	  1.05907	 92.20036	711.59998	 38.00	
  6.796	 13.771	 90.97397	 58.05341	 20.42822	 47.19662	 30.72262	  1.08624	 92.20493	711.60999	 38.00	
  6.808	 27.689	 90.86158	 56.05832	 21.88967	 51.72111	 26.37181	  1.07534	 92.29300	711.66998	 38.00	
  6.795	 41.617	 90.68175	 52.52968	 24.20870	 55.57674	 22.47809	  0.97322	 92.26097	711.46002	 38.00	
  6.792	 55.409	 90.55985	 48.55893	 27.35895	 58.64795	 19.34691	  0.87394	 92.26722	711.62000	 38.10	
  6.787	 69.246	 90.47021	 43.97788	 31.72431	 60.85780	 17.37802	  0.79310	 92.26830	711.60999	 38.10	
  6.800	 83.015	 90.39035	 39.23454	 36.22281	 61.95702	 16.31005	  0.65859	 92.26353	711.53998	 38.10	
  6.800	 96.985	 90.36398	 34.47910	 40.99033	 61.83307	 16.39429	  0.52425	 92.29992	711.26001	 38.10	
  6.787	110.754	 90.38924	 30.84124	 45.72076	 60.49498	 17.54692	  0.44909	 92.33228	711.53998	 38.10	
  6.792	124.591	 90.38656	 26.97622	 50.14624	 58.00949	 19.81455	  0.38253	 92.28130	711.62000	 38.10	
  6.795	138.383	 90.38366	 22.80232	 53.88357	 54.75519	 22.90756	  0.28890	 92.22720	711.50000	 38.20	
  6.808	152.311	 90.53656	 20.54838	 56.85156	 50.72455	 26.75329	  0.23048	 92.24800	711.53003	 38.20	
  6.796	166.229	 90.75269	 19.32162	 58.74739	 46.06838	 31.18867	  0.21726	 92.30904	711.59998	 38.20	
  8.491	168.704	 89.49945	 14.53563	 62.99667	 44.93206	 29.95935	 -0.85591	 92.25369	711.65002	 38.20	
  8.502	157.493	 89.36069	 15.37564	 61.43920	 49.75045	 25.41186	 -0.49448	 92.29597	710.90002	 38.20	
  8.494	146.194	 89.21318	 16.82122	 58.87102	 54.13438	 21.16600	 -0.42627	 92.25324	711.58002	 38.20	
  8.495	135.039	 89.21039	 19.37860	 55.61927	 57.99801	 17.74077	 -0.37716	 92.35995	711.62000	 38.20	
  8.487	123.723	 89.11904	 22.65080	 51.53642	 61.29415	 15.19156	 -0.31638	 92.28989	710.85999	 38.20	
  8.492	112.575	 89.02004	 27.31997	 47.15242	 63.80548	 13.17476	 -0.25550	 92.26065	711.28003	 38.30	
  8.510	101.220	 89.00915	 31.67643	 42.26270	 65.47797	 11.80679	 -0.18318	 92.26318	711.00000	 38.30	
  8.500	 90.000	 89.06575	 35.57537	 37.46450	 66.12728	 11.32347	 -0.10551	 92.26602	711.01001	 38.30	
  8.510	 78.780	 89.14407	 40.44314	 32.75841	 65.78394	 11.58637	  0.01563	 92.28481	711.70001	 38.30	
  8.492	 67.425	 89.24609	 45.35875	 28.01575	 64.39039	 12.80652	  0.14966	 92.29122	711.06000	 38.30	
  8.487	 56.277	 89.30798	 49.84589	 24.16280	 62.07218	 14.67312	  0.27877	 92.25365	710.88000	 38.30	
  8.495	 44.961	 89.45175	 54.11218	 20.93317	 58.98929	 17.36999	  0.36391	 92.26555	710.90002	 38.30	
  8.494	 33.806	 89.63303	 57.95696	 18.24701	 55.35497	 20.91177	  0.46406	 92.30692	711.73999	 38.30	
  8.502	 22.507	 89.74581	 60.57572	 16.20255	 51.08674	 25.08896	  0.51855	 92.26029	710.96997	 38.30	
  8.491	 11.296	 90.02663	 62.32497	 14.98320	 46.39869	 29.69504	  0.53239	 92.34506	710.96997	 38.30	
  8.500	  0.000	 90.20899	 63.14196	 14.49911	 41.64219	 34.42445	  0.49646	 92.32034	711.58002	 38.40	
  8.491	-11.296	 90.41254	 62.93657	 15.04965	 36.79594	 38.39544	  0.43553	 92.32338	710.90002	 38.40	
  8.502	-22.507	 90.54152	 61.74312	 16.32739	 32.27950	 43.25151	  0.30297	 92.27038	711.01001	 38.40	
  8.494	-33.806	 90.62134	 59.60976	 18.47287	 28.14297	 48.21222	  0.16651	 92.22422	711.00000	 38.40	
  8.495	-44.961	 90.76743	 56.59313	 21.32972	 24.70329	 52.33091	  0.06562	 92.27753	710.96997	 38.40	
  8.487	-56.277	 90.76478	 52.41901	 24.89764	 21.66005	 55.81302	 -0.02711	 92.22359	711.50000	 38.40	
  8.492	-67.425	 90.74357	 48.00368	 29.09338	 19.36994	 58.40094	 -0.13648	 92.18188	711.63000	 38.50	
  8.510	-78.780	 90.77036	 43.21936	 33.59449	 18.03548	 60.07482	 -0.25507	 92.22945	710.90002	 38.50	
  8.500	-90.000	 90.71548	 38.39552	 38.38682	 17.59739	 60.63273	 -0.29837	 92.20443	710.95001	 38.50	
  8.510	-101.220	 90.65659	 33.60592	 43.16685	 17.83565	 60.12807	 -0.36180	 92.20448	711.59998	 38.50	
  8.492	-112.575	 90.63149	 29.83268	 47.99106	 18.92733	 58.53929	 -0.44668	 92.26075	710.94000	 38.50	
  8.487	-123.723	 90.48396	 25.68657	 52.45220	 20.78396	 56.04927	 -0.49005	 92.22387	710.95001	 38.60	
  8.495	-135.039	 90.36285	 21.15107	 56.34823	 23.78884	 52.61150	 -0.49042	 92.21116	710.90002	 38.60	
  8.494	-146.194	 90.23115	 18.19715	 59.45517	 27.04937	 48.68394	 -0.57157	 92.27129	711.63000	 38.60	
  8.502	-157.493	 90.01037	 15.87979	 61.86757	 30.96109	 43.72550	 -0.63156	 92.24078	711.60999	 38.60	
  8.491	-168.704	 89.80701	 14.88627	 63.23985	 35.38518	 38.76569	 -0.63520	 92.21580	711.70001	 38.60	
  8.500	180.000	 89.62554	 14.30031	 63.60306	 40.12551	 34.61630	 -0.64933	 92.21287	710.98999	 38.60	
 10.200	180.000	 88.13390	  9.14052	 67.60195	 38.65160	 33.46119	 -1.49276	 92.21317	710.95001	 38.60	
 10.191	-170.497	 88.37408	  9.75382	 67.32018	 34.01532	 37.58384	 -1.45835	 92.25136	710.90997	 38.70	
 10.210	-161.034	 88.51993	 10.93706	 66.11754	 29.44047	 42.60597	 -1.54000	 92.23903	710.88000	 38.70	
 10.194	-151.526	 88.73776	 12.94828	 64.05242	 25.42465	 47.57988	 -1.52416	 92.25774	710.91998	 38.70	
 10.190	-142.105	 88.92625	 15.10797	 61.22529	 21.41339	 52.00411	 -1.55933	 92.20974	710.92999	 38.70	
 10.215	-132.646	 89.10329	 18.05407	 57.84902	 18.18402	 56.13317	 -1.56111	 92.26129	711.03998	 38.70	
 10.203	-123.092	 89.14781	 22.01174	 53.68448	 15.74333	 59.50770	 -1.45241	 92.18747	710.94000	 38.70	
 10.192	-113.678	 89.31566	 26.60394	 49.22208	 13.96282	 62.17915	 -1.21141	 92.22451	710.96997	 38.70	
 10.208	-104.249	 89.36934	 31.03464	 44.53222	 12.80339	 63.92815	 -1.17934	 92.19360	710.95001	 38.80	
 10.210	-94.801	 89.46037	 35.02365	 39.67159	 12.34011	 64.68871	 -1.08949	 92.20644	710.90002	 38.80	
 10.210	-85.199	 89.55265	 39.97243	 34.72215	 12.44938	 64.66609	 -1.06757	 92.25689	710.90997	 38.80	
 10.208	-75.751	 89.57050	 44.78000	 30.04169	 13.11665	 63.82792	 -1.04748	 92.25143	710.84998	 38.80	
 10.192	-66.322	 89.55964	 49.56151	 25.36349	 14.51797	 61.96563	 -1.01565	 92.22964	710.92999	 38.80	
 10.203	-56.908	 89.59545	 54.07588	 21.36371	 16.54440	 59.34150	 -0.85307	 92.28932	710.87000	 38.80	
 10.215	-47.354	 89.49147	 58.33532	 17.72888	 19.16550	 55.81400	 -0.87437	 92.22544	710.88000	 38.80	
 10.190	-37.895	 89.49104	 61.61657	 14.82975	 22.66922	 51.72424	 -0.96286	 92.26260	710.91998	 38.80	
 10.194	-28.474	 89.37981	 64.14456	 12.44648	 26.66472	 47.05153	 -0.58162	 92.25971	711.00000	 38.90	
 10.210	-18.966	 89.25246	 66.08014	 10.67545	 30.90517	 42.19543	 -0.47067	 92.29597	710.84003	 38.90	
 10.191	 -9.503	 89.02815	 66.88102	  9.73943	 35.58295	 37.10960	 -0.36431	 92.24514	710.95001	 38.90	
 10.200	  0.000	 88.76387	 66.86861	  9.14225	 40.37106	 33.11861	 -0.25852	 92.23465	710.90002	 38.90	
 10.191	  9.503	 88.63661	 66.43859	  9.55712	 45.17106	 28.20712	 -0.21983	 92.31171	710.94000	 38.90	
 10.210	 18.966	 88.37494	 64.82178	 10.49206	 49.98090	 23.46517	 -0.21197	 92.28629	710.97998	 38.90	
 10.194	 28.474	 88.18999	 62.36532	 12.22744	 54.49062	 19.24459	 -0.28433	 92.26847	710.90002	 39.00	
 10.190	 37.895	 87.97624	 59.30436	 14.40576	 58.50404	 15.52450	 -0.35908	 92.24894	710.92999	 39.00	
 10.215	 47.354	 87.84345	 55.32364	 17.13712	 62.28827	 12.32120	 -0.43227	 92.30232	710.95001	 39.00	
 10.203	 56.908	 87.74324	 50.83398	 20.62543	 65.33891	  9.86791	 -0.85695	 92.31575	710.85999	 39.00	
 10.192	 66.322	 87.61501	 46.29125	 24.50163	 67.58359	  8.00311	 -0.88006	 92.27299	710.96002	 39.00	
 10.208	 75.751	 87.55253	 41.47710	 28.74901	 69.23058	  6.66316	 -0.90204	 92.28651	710.88000	 39.00	
 10.210	 85.199	 87.46144	 36.57133	 33.55634	 69.96847	  6.01423	 -0.98223	 92.25091	710.92999	 39.00	
 10.210	 94.801	 87.38829	 32.38962	 38.51067	 69.80405	  6.15239	 -1.03686	 92.25508	710.98999	 39.00	
 10.208	104.249	 87.36347	 27.83786	 43.39170	 68.80553	  6.91097	 -1.14125	 92.28584	710.89001	 39.00	
 10.192	113.678	 87.33527	 23.47614	 48.23935	 66.89175	  8.39023	 -1.55452	 92.22538	710.83002	 39.00	
 10.203	123.092	 87.40675	 19.06576	 52.73419	 64.39128	 10.41455	 -1.22864	 92.24855	710.89001	 39.00	
 10.215	132.646	 87.43576	 15.85441	 56.96722	 61.09617	 12.96085	 -1.46870	 92.25025	710.90002	 39.00	
 10.190	142.105	 87.55507	 13.68733	 60.48948	 57.21614	 16.07425	 -1.32485	 92.25660	710.84998	 39.00	
 10.194	151.526	 87.67841	 11.59362	 63.41915	 53.05174	 19.44727	 -1.83820	 92.29095	710.82001	 39.00	
 10.210	161.034	 87.81415	 10.05714	 65.71202	 48.43373	 23.94636	 -2.03307	 92.28648	710.83002	 39.00	
 10.191	170.497	 87.96875	  9.32146	 67.01884	 43.58649	 28.65366	 -1.98975	 92.25033	710.71002	 39.10	
 11.899	171.783	 86.19840	  4.59531	 70.81874	 42.08862	 26.97317	 -2.74688	 92.27243	710.78003	 39.10	
 11.890	163.610	 86.00697	  5.24119	 69.55885	 46.80569	 22.25903	 -2.84984	 92.25994	710.77002	 39.10	
 11.889	155.445	 85.81945	  6.46635	 67.58231	 51.49760	 18.13330	 -2.93021	 92.23274	710.84998	 39.10	
 11.909	147.299	 85.67955	  8.13299	 64.98121	 55.93559	 14.49648	 -2.93788	 92.21909	710.94000	 39.10	
 11.902	139.148	 85.60027	 10.07090	 61.75030	 60.05405	 11.10077	 -2.86616	 92.25034	710.90997	 39.20	
 11.894	130.867	 85.54895	 12.74768	 58.04333	 63.86916	  8.12964	 -2.80272	 92.26514	710.91998	 39.20	
 11.897	122.732	 85.54189	 15.63799	 53.74437	 67.07463	  5.66459	 -2.66079	 92.23989	710.78003	 39.20	
 11.903	114.597	 85.43417	 19.77195	 49.19071	 69.66838	  3.62750	 -2.64829	 92.21553	711.03003	 39.20	
 11.893	106.346	 85.39243	 24.17986	 44.17012	 71.62164	  2.07075	 -2.79254	 92.18391	710.90002	 39.20	
 11.892	 98.155	 85.46000	 28.43599	 39.23690	 72.89447	  1.09835	 -2.92153	 92.22523	710.90997	 39.20	
 11.900	 90.000	 85.45332	 33.08965	 34.37271	 73.39571	  0.70271	 -2.03448	 92.17114	710.82001	 39.20	
 11.892	 81.845	 85.60654	 37.20903	 29.55371	 73.18279	  1.04127	 -2.44492	 92.21918	710.84003	 39.20	
 11.893	 73.654	 85.64317	 42.15695	 25.03667	 72.16998	  1.92092	 -2.57635	 92.17798	710.87000	 39.20	
 11.903	 65.403	 85.74529	 47.02035	 20.83048	 70.51138	  3.28101	 -2.52822	 92.23908	710.95001	 39.20	
 11.897	 57.268	 85.80421	 51.55667	 17.24532	 68.12358	  5.15810	 -2.55083	 92.20547	710.85999	 39.20	
 11.894	 49.133	 85.94988	 56.13083	 13.95889	 65.18826	  7.55900	 -1.47078	 92.26244	710.97998	 39.20	
 11.902	 40.852	 86.10900	 60.35460	 10.83143	 61.54953	 10.54138	 -1.49828	 92.26472	710.79999	 39.20	
 11.909	 32.701	 86.28214	 63.70884	  8.44399	 57.57339	 13.95903	 -1.62383	 92.24914	710.96002	 39.30	
 11.889	 24.555	 86.51253	 66.45999	  6.61764	 53.31068	 17.75913	 -1.44727	 92.25391	710.94000	 39.30	
 11.890	 16.390	 86.68592	 68.29282	  5.17148	 48.64573	 21.91611	 -1.41408	 92.24538	711.02002	 39.30	
 11.899	  8.217	 86.91000	 69.82213	  4.21272	 43.80480	 26.62647	 -1.04593	 92.26038	711.00000	 39.30	
 11.900	  0.000	 87.11772	 70.52162	  3.93433	 38.88855	 31.53034	 -1.19181	 92.23538	711.01001	 39.30	
 11.899	 -8.217	 87.34467	 70.48796	  4.24898	 34.14865	 36.62399	 -1.16908	 92.23750	710.94000	 39.30	
 11.890	-16.390	 87.56554	 69.61990	  5.32727	 29.46884	 40.82760	 -1.25927	 92.22839	710.90002	 39.30	
 11.889	-24.555	 87.80590	 68.13756	  6.80915	 24.97387	 45.73489	 -1.34253	 92.30586	710.98999	 39.30	
 11.909	-32.701	 87.85371	 66.14037	  8.83776	 20.79891	 50.49258	 -1.81935	 92.24051	710.88000	 39.30	
 11.902	-40.852	 87.94475	 63.34015	 11.28203	 17.29771	 54.95035	 -1.92497	 92.27558	710.84998	 39.30	
 11.894	-49.133	 87.98344	 59.73185	 14.41129	 14.29742	 58.99730	 -1.87250	 92.25410	710.82001	 39.40	
 11.897	-57.268	 88.09086	 55.52977	 17.88057	 11.86044	 62.32652	 -1.91400	 92.26745	710.83002	 39.40	
 11.903	-65.403	 88.06985	 50.95198	 21.83356	  9.85096	 65.04894	 -1.98126	 92.22157	710.89001	 39.40	
 11.893	-73.654	 88.05840	 46.20938	 26.16285	  8.42210	 66.92783	 -2.02513	 92.23438	710.89001	 39.40	
 11.892	-81.845	 88.02827	 41.31866	 30.96158	  7.36804	 68.13825	 -1.88772	 92.23341	710.90002	 39.40	
 11.900	-90.000	 87.93311	 36.35699	 35.80149	  6.93269	 68.42014	 -1.78360	 92.20669	710.89001	 39.40	
 11.892	-98.155	 87.90214	 31.48394	 40.73781	  7.14773	 68.19965	 -1.94343	 92.24915	710.79999	 39.40	
 11.893	-106.346	 87.83506	 27.68088	 45.56758	  7.86810	 67.14187	 -1.91118	 92.24152	710.87000	 39.40	
 11.903	-114.597	 87.67883	 23.34465	 50.24976	  9.14149	 65.26122	 -1.99228	 92.18893	710.92999	 39.40	
 11.897	-122.732	 87.59209	 19.32436	 54.81468	 10.97106	 62.68169	 -2.20691	 92.22192	710.81000	 39.40	
 11.894	-130.867	 87.44637	 15.41428	 58.96670	 13.17873	 59.41137	 -2.20485	 92.22356	710.88000	 39.40	
 11.902	-139.148	 87.34065	 12.19649	 62.62994	 16.04971	 55.35028	 -2.23258	 92.20664	710.83002	 39.40	
 11.909	-147.299	 87.11956	  9.66751	 65.69893	 19.36396	 50.97591	 -2.34011	 92.17757	710.88000	 39.50	
 11.889	-155.445	 86.93352	  7.68774	 68.17989	 23.50358	 46.26527	 -2.49293	 92.18925	710.91998	 39.50	
 11.890	-163.610	 86.72688	  6.03176	 70.01009	 27.85171	 41.33578	 -2.68850	 92.19157	710.78998	 39.50	
 11.899	-171.783	 86.52669	  4.94361	 71.09741	 32.37053	 36.93682	 -2.62534	 92.21612	710.89001	 39.50	
 11.900	180.000	 86.29202	  4.37167	 71.34556	 37.00126	 32.07306	 -2.62619	 92.19181	710.94000	 39.50	
 13.600	180.000	 84.18352	 -0.79573	 74.84804	 35.20360	 30.26788	 -3.22634	 92.24316	710.90997	 39.50	
 13.608	-172.853	 84.35823	 -0.45890	 74.63364	 30.61470	 35.16530	 -3.21847	 92.20771	710.96002	 39.50	
 13.611	-165.583	 84.57518	  0.53690	 73.71867	 25.94087	 39.69379	 -3.17245	 92.24538	710.78998	 39.50	
 13.601	-158.353	 84.82764	  2.17305	 72.10415	 21.32965	 44.71426	 -3.07835	 92.23888	710.90997	 39.50	
 13.609	-151.210	 85.01643	  4.08296	 69.88669	 17.48406	 49.40971	 -2.86751	 92.22047	710.91998	 39.50	
 13.611	-143.999	 85.24352	  6.38191	 67.02560	 14.01437	 54.16478	 -2.71003	 92.21882	710.91998	 39.50	
 13.601	-136.825	 85.37286	  8.97515	 63.64246	 10.98804	 58.50684	 -2.60773	 92.17762	710.90997	 39.50	
 13.596	-129.640	 85.55611	 11.92666	 59.92827	  8.31059	 62.29929	 -2.61242	 92.24198	710.90002	 39.50	
