FileType=PCF
NHL=14
Date=03/08/19	11:01:06
Facility=APL
Serial=16071-5
Customer=NASA
NP=6
Mach=0.036000
Calibration=1:1
CalPts=490
TstPts=95
PortNumbering=AP Standard
Units=Torr C m/s kg/m^3 deg mm 
Theta[deg]	Phi[deg]	P1[Torr]	P2[Torr]	P3[Torr]	P4[Torr]	P5[Torr]	P6[Torr]	Pt[Torr]	Ps[Abs,Torr]	Ts[C]	
  0.000	  0.000	  0.64544	  0.29858	  0.29387	  0.31250	  0.28398	  0.04394	  0.64454	709.90997	 16.00	
  1.691	128.401	  0.64467	  0.27874	  0.31294	  0.33236	  0.26134	  0.04210	  0.64465	709.96997	 16.00	
  1.692	 77.194	  0.65009	  0.30350	  0.28971	  0.34218	  0.25626	  0.04321	  0.64955	709.98999	 16.00	
  1.699	 26.182	  0.65044	  0.32509	  0.27043	  0.32507	  0.27170	  0.04297	  0.65005	709.97998	 16.00	
  1.699	-26.182	  0.64673	  0.32373	  0.26945	  0.29737	  0.29320	  0.03956	  0.64631	710.07001	 16.00	
  1.692	-77.194	  0.64415	  0.30320	  0.28666	  0.28301	  0.31024	  0.03824	  0.64523	710.04999	 15.90	
  1.691	-128.401	  0.65089	  0.28312	  0.31364	  0.28965	  0.30721	  0.03721	  0.65217	709.97998	 15.90	
  1.700	180.000	  0.65079	  0.27115	  0.32716	  0.31099	  0.28459	  0.03849	  0.65131	710.09998	 15.90	
  3.400	180.000	  0.64482	  0.23506	  0.35909	  0.30459	  0.28019	  0.03495	  0.64620	710.12000	 15.90	
  3.388	-152.325	  0.64521	  0.24350	  0.35020	  0.27757	  0.30921	  0.03419	  0.64649	710.08002	 15.90	
  3.397	-124.529	  0.64824	  0.26323	  0.32906	  0.25841	  0.33452	  0.03247	  0.64979	710.15002	 15.90	
  3.399	-96.763	  0.64050	  0.28639	  0.29673	  0.24620	  0.34226	  0.03265	  0.64343	710.09003	 15.90	
  3.394	-69.283	  0.65246	  0.32027	  0.27365	  0.25368	  0.34383	  0.03390	  0.65530	710.06000	 15.90	
  3.400	-41.398	  0.64479	  0.34328	  0.24745	  0.26809	  0.32124	  0.03506	  0.64668	710.12000	 15.80	
  3.401	-14.021	  0.65075	  0.36111	  0.23716	  0.29512	  0.29708	  0.03823	  0.65248	710.09003	 15.90	
  3.401	 14.021	  0.64901	  0.35994	  0.23746	  0.32414	  0.26741	  0.04223	  0.64985	710.07001	 15.80	
  3.400	 41.398	  0.64680	  0.34375	  0.24772	  0.35098	  0.24193	  0.04468	  0.64717	710.07001	 15.80	
  3.394	 69.283	  0.64557	  0.31633	  0.27100	  0.37087	  0.22565	  0.04519	  0.64696	710.15997	 15.80	
  3.399	 96.763	  0.64500	  0.28634	  0.30120	  0.37416	  0.22348	  0.04515	  0.64576	710.03998	 15.80	
  3.397	124.529	  0.64992	  0.26317	  0.33037	  0.36345	  0.23597	  0.04288	  0.65096	710.12000	 15.80	
  3.388	152.325	  0.64966	  0.24400	  0.35388	  0.33810	  0.25608	  0.03886	  0.65085	710.23999	 15.80	
  5.099	161.165	  0.64364	  0.20707	  0.38570	  0.33369	  0.24896	  0.03351	  0.64766	710.09003	 15.80	
  5.109	142.013	  0.64298	  0.21966	  0.37000	  0.36334	  0.22306	  0.03672	  0.64774	710.04999	 15.80	
  5.095	123.033	  0.64087	  0.24068	  0.34362	  0.38632	  0.20426	  0.04046	  0.64499	710.20001	 15.80	
  5.105	104.191	  0.64634	  0.26826	  0.31582	  0.40393	  0.19320	  0.04247	  0.64943	710.09998	 15.80	
  5.093	 85.207	  0.63951	  0.29723	  0.27949	  0.40626	  0.18658	  0.04209	  0.64328	710.10999	 15.80	
  5.104	 66.290	  0.64741	  0.33236	  0.25224	  0.40201	  0.19531	  0.04291	  0.65091	710.00000	 15.80	
  5.094	 47.331	  0.64496	  0.35872	  0.22618	  0.38038	  0.20910	  0.04278	  0.64692	710.08002	 15.80	
  5.089	 28.397	  0.64724	  0.38129	  0.21036	  0.35375	  0.23397	  0.04274	  0.65183	710.12000	 15.80	
  5.096	  9.576	  0.64921	  0.39387	  0.20093	  0.32288	  0.26210	  0.04021	  0.65248	710.04999	 15.80	
  5.096	 -9.576	  0.64785	  0.39301	  0.20071	  0.29029	  0.29355	  0.03758	  0.65011	710.07001	 15.80	
  5.089	-28.397	  0.63820	  0.37713	  0.20857	  0.25719	  0.32076	  0.03475	  0.64251	710.01001	 15.80	
  5.094	-47.331	  0.64279	  0.36033	  0.22576	  0.23461	  0.34872	  0.03041	  0.64817	710.08002	 15.80	
  5.104	-66.290	  0.64401	  0.33219	  0.24948	  0.21930	  0.36802	  0.02792	  0.64919	709.96997	 15.80	
  5.093	-85.207	  0.64294	  0.30067	  0.27881	  0.21155	  0.37655	  0.02586	  0.64763	710.06000	 15.80	
  5.105	-104.191	  0.64359	  0.27041	  0.31010	  0.21293	  0.37489	  0.02376	  0.64851	710.08002	 15.80	
  5.095	-123.033	  0.64400	  0.24398	  0.34142	  0.22421	  0.36202	  0.02503	  0.64932	710.03998	 15.80	
  5.109	-142.013	  0.64345	  0.22251	  0.36576	  0.24280	  0.33881	  0.02724	  0.64784	710.01001	 15.80	
  5.099	-161.165	  0.64253	  0.20731	  0.38352	  0.26826	  0.30908	  0.02868	  0.64763	710.06000	 15.80	
  5.100	180.000	  0.64779	  0.20329	  0.39339	  0.30223	  0.28046	  0.03007	  0.65259	709.95001	 15.80	
  6.800	180.000	  0.63839	  0.16755	  0.42132	  0.29492	  0.27322	  0.02327	  0.64875	710.04999	 15.80	
  6.796	-166.229	  0.63985	  0.17059	  0.41823	  0.26455	  0.30479	  0.02057	  0.64857	710.03998	 15.80	
  6.808	-152.311	  0.64124	  0.18219	  0.40448	  0.23671	  0.33527	  0.01987	  0.65056	710.07001	 15.80	
  6.795	-138.383	  0.63918	  0.19793	  0.38308	  0.21207	  0.36162	  0.01735	  0.64917	710.08002	 15.80	
  6.792	-124.591	  0.63777	  0.21902	  0.35702	  0.19470	  0.38261	  0.01567	  0.64849	710.10999	 15.80	
  6.787	-110.754	  0.63713	  0.24456	  0.32718	  0.18272	  0.39748	  0.01604	  0.64626	710.09998	 15.80	
  6.800	-96.985	  0.64017	  0.27425	  0.29677	  0.17685	  0.40721	  0.01630	  0.64935	710.10999	 15.80	
  6.800	-83.015	  0.64189	  0.30568	  0.26656	  0.17683	  0.40900	  0.01729	  0.65291	710.02002	 15.80	
  6.787	-69.246	  0.63831	  0.33486	  0.23694	  0.18357	  0.39711	  0.01849	  0.64757	710.09003	 15.80	
  6.792	-55.409	  0.63970	  0.36505	  0.21228	  0.19610	  0.38314	  0.01952	  0.65082	710.03998	 15.80	
  6.795	-41.617	  0.64097	  0.39003	  0.19186	  0.21410	  0.36319	  0.02237	  0.64970	710.04999	 15.80	
  6.808	-27.689	  0.64132	  0.40894	  0.17697	  0.23903	  0.33479	  0.02447	  0.65116	710.08002	 15.80	
  6.796	-13.771	  0.64417	  0.42308	  0.16768	  0.26975	  0.30495	  0.02779	  0.65089	710.15002	 15.80	
  6.800	  0.000	  0.63861	  0.42208	  0.16540	  0.29810	  0.27146	  0.03264	  0.64499	710.20001	 15.80	
  6.796	 13.771	  0.63430	  0.41613	  0.16721	  0.32874	  0.24024	  0.03549	  0.64132	710.15997	 15.80	
  6.808	 27.689	  0.64475	  0.40989	  0.17879	  0.36659	  0.21529	  0.03981	  0.65296	710.00000	 15.80	
  6.795	 41.617	  0.63751	  0.38463	  0.19355	  0.39004	  0.18926	  0.04102	  0.64431	710.09003	 15.80	
  6.792	 55.409	  0.64369	  0.36255	  0.21728	  0.41537	  0.17603	  0.04193	  0.64910	710.06000	 15.80	
  6.787	 69.246	  0.64282	  0.33222	  0.24278	  0.43056	  0.16341	  0.04297	  0.64741	709.92999	 15.80	
  6.800	 83.015	  0.63848	  0.29996	  0.27132	  0.43503	  0.15715	  0.04166	  0.64516	710.09003	 15.80	
  6.800	 96.985	  0.64150	  0.27042	  0.30340	  0.43693	  0.15732	  0.03979	  0.64798	710.02002	 15.80	
  6.787	110.754	  0.64062	  0.24115	  0.33439	  0.42730	  0.16388	  0.03781	  0.64798	709.98999	 15.80	
  6.792	124.591	  0.64053	  0.21446	  0.36438	  0.41124	  0.17532	  0.03617	  0.64825	709.92999	 15.80	
  6.795	138.383	  0.64244	  0.19542	  0.39058	  0.38943	  0.19487	  0.03115	  0.65061	710.04999	 15.80	
  6.808	152.311	  0.63768	  0.17947	  0.40620	  0.35740	  0.21667	  0.02938	  0.64614	710.04999	 15.80	
  6.796	166.229	  0.64319	  0.17189	  0.42180	  0.32862	  0.24569	  0.02794	  0.65198	709.96002	 15.80	
  8.491	168.704	  0.63268	  0.13346	  0.45013	  0.32082	  0.23662	  0.01808	  0.64879	710.06000	 15.80	
  8.502	157.493	  0.63068	  0.14087	  0.44035	  0.35394	  0.20683	  0.02394	  0.64792	710.00000	 15.80	
  8.494	146.194	  0.63371	  0.15342	  0.42508	  0.38584	  0.18184	  0.02396	  0.64939	709.97998	 15.80	
  8.495	135.039	  0.63319	  0.17188	  0.40297	  0.41266	  0.16137	  0.02718	  0.64819	710.07001	 15.80	
  8.487	123.723	  0.63500	  0.19411	  0.37728	  0.43663	  0.14476	  0.02966	  0.64898	709.90997	 15.90	
  8.492	112.575	  0.63740	  0.21887	  0.34769	  0.45547	  0.13226	  0.03217	  0.65111	709.94000	 15.80	
  8.510	101.220	  0.63436	  0.24700	  0.31439	  0.46479	  0.12316	  0.03376	  0.64877	710.03003	 15.90	
  8.500	 90.000	  0.63526	  0.27868	  0.28223	  0.47022	  0.12011	  0.03618	  0.64975	710.02002	 15.80	
  8.510	 78.780	  0.63811	  0.31136	  0.25147	  0.46955	  0.12146	  0.03669	  0.65066	710.03998	 15.80	
  8.492	 67.425	  0.63660	  0.34294	  0.22043	  0.45766	  0.12856	  0.03774	  0.65013	710.02002	 15.80	
  8.487	 56.277	  0.63602	  0.37256	  0.19445	  0.44024	  0.14126	  0.03782	  0.64940	709.97998	 15.80	
  8.495	 44.961	  0.63237	  0.39868	  0.17087	  0.41599	  0.15730	  0.03685	  0.64581	710.01001	 15.90	
  8.494	 33.806	  0.64125	  0.42521	  0.15533	  0.39488	  0.18051	  0.03484	  0.65497	710.03003	 15.90	
  8.502	 22.507	  0.63301	  0.43708	  0.14051	  0.35860	  0.20386	  0.03386	  0.64636	710.03003	 15.90	
  8.491	 11.296	  0.63810	  0.45169	  0.13135	  0.32883	  0.23223	  0.02847	  0.65160	710.07001	 15.90	
  8.500	  0.000	  0.63382	  0.45391	  0.12772	  0.29351	  0.26237	  0.02606	  0.64843	709.97998	 15.90	
  8.491	-11.296	  0.63326	  0.45053	  0.13175	  0.26238	  0.29414	  0.02017	  0.64635	710.09998	 15.90	
  8.502	-22.507	  0.63270	  0.43858	  0.13919	  0.23266	  0.32419	  0.01817	  0.64866	709.96002	 15.80	
  8.494	-33.806	  0.63312	  0.42409	  0.15091	  0.20514	  0.35583	  0.01850	  0.64823	710.04999	 15.90	
  8.495	-44.961	  0.63178	  0.40181	  0.16785	  0.18308	  0.38282	  0.01210	  0.64844	710.03998	 15.80	
  8.487	-56.277	  0.63385	  0.37530	  0.19060	  0.16403	  0.40587	  0.01103	  0.65018	710.00000	 15.90	
  8.492	-67.425	  0.63016	  0.34463	  0.21390	  0.15040	  0.42037	  0.00656	  0.64711	709.88000	 15.90	
  8.510	-78.780	  0.62677	  0.31205	  0.24141	  0.14201	  0.42913	  0.00742	  0.64566	710.03003	 15.90	
  8.500	-90.000	  0.62752	  0.27950	  0.27246	  0.13970	  0.43053	  0.00741	  0.64504	709.96997	 15.90	
  8.510	-101.220	  0.63149	  0.24987	  0.30652	  0.14089	  0.43208	  0.00605	  0.64905	710.03998	 15.90	
  8.492	-112.575	  0.62814	  0.21873	  0.33823	  0.14739	  0.42029	  0.00605	  0.64727	710.04999	 15.90	
  8.487	-123.723	  0.62914	  0.19575	  0.36700	  0.16092	  0.40495	  0.00609	  0.64705	709.92999	 15.90	
  8.495	-135.039	  0.63004	  0.17348	  0.39498	  0.17899	  0.38454	  0.00843	  0.64804	710.03003	 15.90	
  8.494	-146.194	  0.62754	  0.15591	  0.41596	  0.19977	  0.35746	  0.01019	  0.64608	709.98999	 15.90	
  8.502	-157.493	  0.62587	  0.14140	  0.43283	  0.22406	  0.32667	  0.01316	  0.64256	710.06000	 15.90	
  8.491	-168.704	  0.62747	  0.13385	  0.44498	  0.25467	  0.29625	  0.01503	  0.64558	709.85999	 15.90	
  8.500	180.000	  0.63259	  0.13247	  0.45288	  0.28882	  0.26754	  0.01704	  0.64866	709.91998	 15.90	
 10.200	180.000	  0.62280	  0.09695	  0.47929	  0.27949	  0.25881	  0.00873	  0.64852	709.90997	 15.90	
 10.191	-170.497	  0.61772	  0.09946	  0.47150	  0.24672	  0.28839	  0.00666	  0.64308	709.96002	 15.90	
 10.210	-161.034	  0.62188	  0.10566	  0.46600	  0.21796	  0.32266	  0.00581	  0.64946	709.92999	 15.90	
 10.194	-151.526	  0.61803	  0.11634	  0.44726	  0.18839	  0.35162	  0.00429	  0.64531	709.84003	 15.90	
 10.190	-142.105	  0.62003	  0.13138	  0.42897	  0.16503	  0.38078	  0.00289	  0.64710	709.94000	 15.90	
 10.215	-132.646	  0.62222	  0.14980	  0.40600	  0.14264	  0.40786	 -0.00089	  0.65083	709.91998	 15.90	
 10.203	-123.092	  0.62232	  0.17405	  0.37640	  0.12635	  0.43021	 -0.00458	  0.65112	709.98999	 15.90	
 10.192	-113.678	  0.61982	  0.20000	  0.34384	  0.11720	  0.44101	 -0.00648	  0.64722	710.01001	 15.90	
 10.208	-104.249	  0.62137	  0.22793	  0.31238	  0.10633	  0.45715	 -0.00515	  0.64953	709.96002	 15.90	
 10.210	-94.801	  0.62187	  0.25945	  0.27995	  0.10272	  0.46336	 -0.00507	  0.65016	709.91998	 15.90	
 10.210	-85.199	  0.62324	  0.29236	  0.24731	  0.10400	  0.46209	 -0.00687	  0.65175	709.89001	 15.90	
 10.208	-75.751	  0.62075	  0.32276	  0.21734	  0.10721	  0.45606	 -0.00037	  0.64877	710.03003	 15.90	
 10.192	-66.322	  0.62167	  0.35556	  0.18858	  0.11613	  0.44346	 -0.00157	  0.64984	709.97998	 15.90	
 10.203	-56.908	  0.61853	  0.38252	  0.16429	  0.12962	  0.42525	  0.00225	  0.64481	709.92999	 15.90	
 10.215	-47.354	  0.62025	  0.41221	  0.14058	  0.14601	  0.40319	  0.00390	  0.64673	709.90002	 15.90	
 10.190	-37.895	  0.62531	  0.43863	  0.12406	  0.17036	  0.37884	  0.00651	  0.65124	709.89001	 15.90	
 10.194	-28.474	  0.62500	  0.45860	  0.10931	  0.19367	  0.35051	  0.00926	  0.65021	709.95001	 15.90	
 10.210	-18.966	  0.62958	  0.47582	  0.10102	  0.22403	  0.32221	  0.01240	  0.65410	710.01001	 15.90	
 10.191	 -9.503	  0.63011	  0.48286	  0.09409	  0.25460	  0.28850	  0.01682	  0.65468	709.96997	 15.90	
 10.200	  0.000	  0.62191	  0.48033	  0.09238	  0.28403	  0.25464	  0.01800	  0.64561	709.94000	 15.90	
 10.191	  9.503	  0.62084	  0.47721	  0.09422	  0.31707	  0.22319	  0.02159	  0.64580	709.88000	 15.90	
 10.210	 18.966	  0.62212	  0.46770	  0.10132	  0.35013	  0.19415	  0.02279	  0.64669	709.85999	 15.90	
 10.194	 28.474	  0.62620	  0.45523	  0.11334	  0.38329	  0.16876	  0.02665	  0.64984	709.96002	 15.90	
 10.190	 37.895	  0.62446	  0.43496	  0.12827	  0.41232	  0.14651	  0.03001	  0.64864	710.01001	 15.90	
 10.215	 47.354	  0.62384	  0.40833	  0.14739	  0.43816	  0.12558	  0.03151	  0.64671	709.91998	 15.90	
 10.203	 56.908	  0.62317	  0.38026	  0.17082	  0.46036	  0.10985	  0.03035	  0.64675	709.98999	 15.90	
 10.192	 66.322	  0.62202	  0.34846	  0.19801	  0.47602	  0.09908	  0.03220	  0.64352	709.90997	 15.90	
 10.208	 75.751	  0.62530	  0.31769	  0.22848	  0.49011	  0.09024	  0.03090	  0.64755	709.90002	 15.90	
 10.210	 85.199	  0.62808	  0.28794	  0.25944	  0.49914	  0.08573	  0.03001	  0.65200	709.95001	 15.90	
 10.210	 94.801	  0.62288	  0.25301	  0.28921	  0.49404	  0.08519	  0.02785	  0.64637	709.90997	 15.90	
 10.208	104.249	  0.62180	  0.22193	  0.32243	  0.48716	  0.08996	  0.02685	  0.64476	709.90997	 15.90	
 10.192	113.678	  0.62780	  0.19525	  0.35721	  0.47850	  0.09873	  0.02406	  0.65245	710.03003	 15.90	
 10.203	123.092	  0.62719	  0.16962	  0.38773	  0.46023	  0.11127	  0.02197	  0.65270	709.98999	 15.90	
 10.215	132.646	  0.62545	  0.14769	  0.41515	  0.43666	  0.12820	  0.01905	  0.65078	709.85999	 15.90	
 10.190	142.105	  0.62236	  0.12810	  0.43695	  0.40689	  0.14938	  0.01941	  0.64743	709.97998	 15.90	
 10.194	151.526	  0.62032	  0.11452	  0.45406	  0.37575	  0.17168	  0.01493	  0.64570	709.96997	 15.90	
 10.210	161.034	  0.62278	  0.10480	  0.46986	  0.34636	  0.19938	  0.01446	  0.64882	709.94000	 15.90	
 10.191	170.497	  0.62337	  0.09888	  0.47770	  0.31284	  0.22870	  0.01119	  0.64967	709.89001	 15.90	
 11.899	171.783	  0.61046	  0.06125	  0.50483	  0.30163	  0.21765	  0.00260	  0.64984	709.91998	 15.90	
 11.890	163.610	  0.61250	  0.06742	  0.49792	  0.33646	  0.18935	  0.00514	  0.65128	709.94000	 16.00	
 11.889	155.445	  0.60978	  0.07521	  0.48462	  0.36753	  0.16138	  0.00546	  0.64652	710.00000	 16.00	
 11.909	147.299	  0.60909	  0.08751	  0.46784	  0.39866	  0.13633	  0.00862	  0.64645	709.97998	 15.90	
 11.902	139.148	  0.61235	  0.10407	  0.44933	  0.42929	  0.11588	  0.00927	  0.64975	709.98999	 15.90	
 11.894	130.867	  0.61166	  0.12278	  0.42353	  0.45635	  0.09654	  0.01110	  0.64775	710.04999	 16.00	
 11.897	122.732	  0.61258	  0.14447	  0.39587	  0.47893	  0.08071	  0.01469	  0.64775	710.02002	 16.00	
 11.903	114.597	  0.61479	  0.16928	  0.36666	  0.49873	  0.06840	  0.01719	  0.65101	710.06000	 16.00	
 11.893	106.346	  0.61211	  0.19566	  0.33280	  0.51057	  0.05829	  0.01918	  0.64920	710.00000	 16.00	
 11.892	 98.155	  0.60978	  0.22664	  0.29855	  0.51743	  0.05354	  0.02035	  0.64412	709.96997	 16.00	
 11.900	 90.000	  0.61351	  0.25868	  0.26579	  0.52412	  0.04978	  0.02198	  0.64839	709.96997	 16.00	
 11.892	 81.845	  0.61187	  0.28975	  0.23518	  0.52042	  0.05220	  0.02290	  0.64701	710.03003	 16.00	
 11.893	 73.654	  0.61264	  0.32325	  0.20534	  0.51309	  0.05706	  0.02592	  0.64776	710.09998	 16.00	
 11.903	 65.403	  0.61406	  0.35561	  0.17562	  0.50061	  0.06590	  0.02472	  0.64788	709.96997	 16.00	
 11.897	 57.268	  0.61569	  0.38814	  0.14998	  0.48471	  0.07824	  0.02547	  0.64998	709.89001	 16.00	
 11.894	 49.133	  0.61716	  0.41757	  0.12699	  0.46493	  0.09212	  0.02485	  0.65149	710.01001	 16.00	
 11.902	 40.852	  0.61341	  0.44162	  0.10546	  0.43605	  0.11070	  0.02267	  0.64731	709.90002	 16.00	
 11.909	 32.701	  0.61702	  0.46585	  0.08993	  0.40866	  0.13294	  0.02128	  0.65214	709.90002	 16.00	
 11.889	 24.555	  0.61585	  0.48204	  0.07804	  0.37674	  0.15710	  0.01671	  0.65003	709.94000	 16.00	
 11.890	 16.390	  0.61083	  0.49212	  0.06766	  0.34316	  0.18231	  0.01640	  0.64460	710.04999	 16.00	
 11.899	  8.217	  0.61524	  0.50491	  0.06041	  0.31057	  0.21447	  0.01278	  0.65072	710.00000	 16.00	
 11.900	  0.000	  0.61257	  0.50680	  0.05895	  0.27684	  0.24360	  0.00966	  0.64788	709.96002	 16.00	
 11.899	 -8.217	  0.61350	  0.50452	  0.06100	  0.24525	  0.27649	  0.00770	  0.64836	709.98999	 16.00	
 11.890	-16.390	  0.61713	  0.50007	  0.06564	  0.21409	  0.31196	  0.00413	  0.65258	709.95001	 16.00	
 11.889	-24.555	  0.61047	  0.48361	  0.07244	  0.18266	  0.34025	  0.00045	  0.64548	709.95001	 16.00	
 11.909	-32.701	  0.60921	  0.46609	  0.08309	  0.15461	  0.37145	 -0.00293	  0.64627	709.95001	 16.00	
 11.902	-40.852	  0.60706	  0.44220	  0.09965	  0.13273	  0.39630	 -0.00609	  0.64315	709.94000	 16.00	
 11.894	-49.133	  0.61040	  0.42106	  0.11767	  0.11257	  0.42526	 -0.00566	  0.64818	709.95001	 16.00	
 11.897	-57.268	  0.61111	  0.39385	  0.13938	  0.09558	  0.44834	 -0.01090	  0.64891	710.04999	 16.00	
 11.903	-65.403	  0.60910	  0.36270	  0.16353	  0.08269	  0.46445	 -0.01316	  0.64890	709.95001	 16.00	
 11.893	-73.654	  0.60909	  0.33011	  0.19033	  0.07376	  0.47514	 -0.01399	  0.64798	709.98999	 16.00	
 11.892	-81.845	  0.60740	  0.29576	  0.22100	  0.06700	  0.48369	 -0.01467	  0.64647	709.97998	 16.00	
 11.900	-90.000	  0.60608	  0.26410	  0.25219	  0.06697	  0.48431	 -0.01343	  0.64565	710.03003	 16.00	
 11.892	-98.155	  0.60992	  0.23381	  0.28635	  0.06799	  0.48539	 -0.01610	  0.64929	710.08002	 16.00	
 11.893	-106.346	  0.60579	  0.20330	  0.31791	  0.07351	  0.47560	 -0.01345	  0.64513	710.09003	 16.00	
 11.903	-114.597	  0.60850	  0.17488	  0.35256	  0.08214	  0.46604	 -0.01247	  0.64783	710.03003	 16.00	
 11.897	-122.732	  0.60817	  0.14930	  0.38261	  0.09303	  0.45018	 -0.01573	  0.64977	710.00000	 16.00	
 11.894	-130.867	  0.60716	  0.12649	  0.41171	  0.10871	  0.42746	 -0.01216	  0.64698	709.96002	 16.00	
 11.902	-139.148	  0.60718	  0.10732	  0.43712	  0.12945	  0.40123	 -0.00970	  0.64581	709.95001	 16.00	
 11.909	-147.299	  0.60447	  0.08995	  0.45859	  0.15115	  0.37252	 -0.00562	  0.64366	709.98999	 16.00	
 11.889	-155.445	  0.61192	  0.07749	  0.48191	  0.17754	  0.34634	 -0.00692	  0.65129	709.97998	 16.00	
 11.890	-163.610	  0.60876	  0.06824	  0.49374	  0.20576	  0.31367	 -0.00493	  0.64688	710.00000	 16.00	
 11.899	-171.783	  0.60863	  0.06133	  0.50185	  0.23413	  0.28151	 -0.00119	  0.64703	710.03998	 16.00	
 11.900	180.000	  0.60818	  0.06184	  0.50366	  0.26861	  0.24833	 -0.00062	  0.64661	709.98999	 16.00	
 13.600	180.000	  0.59401	  0.02545	  0.52882	  0.25632	  0.23731	 -0.00864	  0.64606	710.08002	 16.00	
 13.608	-172.853	  0.59496	  0.02694	  0.52672	  0.22649	  0.26823	 -0.01454	  0.64814	710.15002	 16.00	
 13.611	-165.583	  0.59258	  0.03118	  0.51615	  0.19411	  0.29779	 -0.01633	  0.64650	710.04999	 16.10	
 13.601	-158.353	  0.59073	  0.03910	  0.50274	  0.16348	  0.33086	 -0.02124	  0.64437	709.96997	 16.00	
 13.609	-151.210	  0.59450	  0.05160	  0.48789	  0.13907	  0.36402	 -0.01972	  0.64734	710.02002	 16.10	
 13.611	-143.999	  0.59300	  0.06531	  0.46665	  0.11293	  0.39529	 -0.01617	  0.64742	710.02002	 16.10	
 13.601	-136.825	  0.59365	  0.08197	  0.44418	  0.09094	  0.42399	 -0.01800	  0.64871	710.02002	 16.10	
 13.596	-129.640	  0.59401	  0.10256	  0.41701	  0.07531	  0.44690	 -0.02083	  0.64896	710.03998	 16.10	
