FileType=PCF
NHL=14
Date=03/18/19	12:33:24
Facility=APL
Serial=16071-8
Customer=NASA
NP=6
Mach=0.150000
Calibration=1:1
CalPts=490
TstPts=95
PortNumbering=AP Standard
Units=Torr C m/s kg/m^3 deg mm 
Theta[deg]	Phi[deg]	P1[Torr]	P2[Torr]	P3[Torr]	P4[Torr]	P5[Torr]	P6[Torr]	Pt[Torr]	Ps[Abs,Torr]	Ts[C]	
  0.000	  0.000	 10.83511	  4.68258	  4.53468	  4.66728	  4.40570	  0.27672	 10.87195	709.95001	 26.00	
  1.691	128.401	 10.82711	  4.30922	  4.87815	  5.09321	  3.96085	  0.26592	 10.86790	709.91998	 26.00	
  1.692	 77.194	 10.83074	  4.76752	  4.41103	  5.22162	  3.83641	  0.28401	 10.86888	709.96997	 25.90	
  1.699	 26.182	 10.82566	  5.16466	  4.02238	  4.91631	  4.12025	  0.29554	 10.86288	709.98999	 25.90	
  1.699	-26.182	 10.82727	  5.19199	  4.00497	  4.41583	  4.62752	  0.28444	 10.86411	709.94000	 25.90	
  1.692	-77.194	 10.83404	  4.81992	  4.38193	  4.12064	  4.94641	  0.26727	 10.87166	709.95001	 25.90	
  1.691	-128.401	 10.82641	  4.34301	  4.86399	  4.21311	  4.84791	  0.25107	 10.86747	709.92999	 25.90	
  1.700	180.000	 10.82442	  4.11650	  5.09702	  4.63242	  4.41269	  0.24941	 10.86515	709.95001	 25.90	
  3.400	180.000	 10.81254	  3.54768	  5.65206	  4.56426	  4.39254	  0.20203	 10.86784	710.00000	 25.90	
  3.388	-152.325	 10.80986	  3.68102	  5.50518	  4.06704	  4.90425	  0.20393	 10.86142	709.96997	 25.90	
  3.397	-124.529	 10.81284	  4.04638	  5.10171	  3.70605	  5.30847	  0.20152	 10.86205	710.04999	 25.90	
  3.399	-96.763	 10.81697	  4.54068	  4.58026	  3.53778	  5.50048	  0.21252	 10.86562	709.84003	 25.80	
  3.394	-69.283	 10.81776	  5.06605	  4.05384	  3.60506	  5.42900	  0.23708	 10.86250	709.85999	 25.80	
  3.400	-41.398	 10.81373	  5.49787	  3.63702	  3.90893	  5.06499	  0.23808	 10.86538	709.96002	 25.80	
  3.401	-14.021	 10.81160	  5.75342	  3.39545	  4.35733	  4.57757	  0.25804	 10.86514	709.92999	 25.80	
  3.401	 14.021	 10.80972	  5.73535	  3.40526	  4.91040	  4.02259	  0.27986	 10.86822	709.88000	 25.80	
  3.400	 41.398	 10.79795	  5.44219	  3.64785	  5.37393	  3.57544	  0.26433	 10.85936	709.92999	 25.80	
  3.394	 69.283	 10.79694	  4.94860	  4.10198	  5.71234	  3.29208	  0.25426	 10.86145	709.94000	 25.80	
  3.399	 96.763	 10.80077	  4.43702	  4.62311	  5.78271	  3.25105	  0.25152	 10.86592	709.95001	 25.80	
  3.397	124.529	 10.80109	  3.96767	  5.12421	  5.55354	  3.43939	  0.21584	 10.86563	709.96002	 25.80	
  3.388	152.325	 10.80244	  3.64460	  5.50781	  5.08885	  3.86086	  0.19957	 10.86498	709.84003	 25.80	
  5.099	161.165	 10.74724	  2.98371	  6.11497	  5.02423	  3.76811	  0.13296	 10.86255	709.87000	 25.70	
  5.109	142.013	 10.73459	  3.20002	  5.82148	  5.56728	  3.26070	  0.14097	 10.85531	709.88000	 25.70	
  5.095	123.033	 10.73928	  3.58236	  5.37567	  5.99559	  2.90129	  0.15877	 10.86458	709.82001	 25.70	
  5.105	104.191	 10.73403	  4.06074	  4.83429	  6.26352	  2.67845	  0.18415	 10.86276	709.88000	 25.70	
  5.093	 85.207	 10.73623	  4.60268	  4.27226	  6.32043	  2.62817	  0.19426	 10.86343	709.84003	 25.70	
  5.104	 66.290	 10.73519	  5.16408	  3.72736	  6.19028	  2.72273	  0.22417	 10.86284	709.78998	 25.70	
  5.094	 47.331	 10.73404	  5.67695	  3.26335	  5.86459	  2.98218	  0.22735	 10.85787	709.78003	 25.70	
  5.089	 28.397	 10.73929	  6.07419	  2.93580	  5.39351	  3.39105	  0.23423	 10.86043	709.76001	 25.70	
  5.096	  9.576	 10.74433	  6.29413	  2.77753	  4.84352	  3.89658	  0.22976	 10.85967	709.96997	 25.70	
  5.096	 -9.576	 10.74905	  6.31976	  2.76708	  4.26993	  4.47200	  0.22050	 10.85802	709.77002	 25.70	
  5.089	-28.397	 10.76434	  6.14707	  2.92545	  3.76586	  5.02626	  0.21195	 10.86339	709.88000	 25.70	
  5.094	-47.331	 10.76893	  5.77894	  3.24562	  3.33537	  5.53322	  0.18140	 10.86611	709.92999	 25.70	
  5.104	-66.290	 10.76999	  5.30655	  3.67710	  3.05232	  5.90816	  0.18582	 10.86301	709.87000	 25.70	
  5.093	-85.207	 10.77788	  4.75734	  4.20040	  2.92502	  6.05595	  0.14426	 10.86140	709.96002	 25.60	
  5.105	-104.191	 10.77357	  4.19172	  4.77778	  2.94843	  6.03136	  0.12962	 10.86030	709.84998	 25.60	
  5.095	-123.033	 10.76735	  3.69135	  5.31819	  3.14383	  5.79492	  0.12620	 10.85713	709.83002	 25.60	
  5.109	-142.013	 10.76758	  3.28622	  5.79294	  3.49373	  5.38824	  0.12776	 10.86107	709.88000	 25.60	
  5.099	-161.165	 10.75995	  3.03586	  6.08395	  3.92972	  4.89298	  0.12751	 10.85903	709.84998	 25.60	
  5.100	180.000	 10.75425	  2.92687	  6.19914	  4.45882	  4.32700	  0.12422	 10.85858	709.89001	 25.60	
  6.800	180.000	 10.66553	  2.27715	  6.74588	  4.33591	  4.22529	  0.03748	 10.86013	709.81000	 25.60	
  6.796	-166.229	 10.67213	  2.35187	  6.65685	  3.80603	  4.78353	  0.04108	 10.85937	709.78003	 25.60	
  6.808	-152.311	 10.68067	  2.54329	  6.42893	  3.31416	  5.33200	  0.04520	 10.86055	709.88000	 25.60	
  6.795	-138.383	 10.68795	  2.85076	  6.06480	  2.91086	  5.81979	  0.04580	 10.86619	709.90997	 25.60	
  6.792	-124.591	 10.68714	  3.24142	  5.59876	  2.59500	  6.20512	  0.04321	 10.85691	709.84998	 25.50	
  6.787	-110.754	 10.69135	  3.72126	  5.06919	  2.39142	  6.47215	  0.04507	 10.85731	709.85999	 25.50	
  6.800	-96.985	 10.68779	  4.24810	  4.50345	  2.29285	  6.60302	  0.05302	 10.85491	710.00000	 25.50	
  6.800	-83.015	 10.69168	  4.80698	  3.94641	  2.30735	  6.58805	  0.06437	 10.86067	709.92999	 25.50	
  6.787	-69.246	 10.68468	  5.34599	  3.42701	  2.43371	  6.41565	  0.08067	 10.85654	709.89001	 25.50	
  6.792	-55.409	 10.67200	  5.85451	  2.97149	  2.66125	  6.11348	  0.09496	 10.85371	709.91998	 25.50	
  6.795	-41.617	 10.67462	  6.29350	  2.60448	  2.99885	  5.69805	  0.11551	 10.85986	709.89001	 25.50	
  6.808	-27.689	 10.66135	  6.62523	  2.32633	  3.42895	  5.18042	  0.13527	 10.85747	709.88000	 25.50	
  6.796	-13.771	 10.65714	  6.82156	  2.16849	  3.93532	  4.62121	  0.15692	 10.86073	710.00000	 25.50	
  6.800	  0.000	 10.65289	  6.87428	  2.11648	  4.47174	  4.06367	  0.16627	 10.86015	709.88000	 25.50	
  6.796	 13.771	 10.64496	  6.77606	  2.18130	  5.03500	  3.51549	  0.17768	 10.86150	709.87000	 25.50	
  6.808	 27.689	 10.63909	  6.53434	  2.35385	  5.58398	  3.01500	  0.17983	 10.86175	709.91998	 25.50	
  6.795	 41.617	 10.63010	  6.16064	  2.64095	  6.05840	  2.60587	  0.16503	 10.85490	709.94000	 25.50	
  6.792	 55.409	 10.62661	  5.69904	  3.02458	  6.44818	  2.29065	  0.15227	 10.85491	709.95001	 25.50	
  6.787	 69.246	 10.63006	  5.16623	  3.50391	  6.72371	  2.08184	  0.14243	 10.86119	710.03998	 25.40	
  6.800	 83.015	 10.61490	  4.60129	  4.03102	  6.85172	  1.97680	  0.11516	 10.84881	709.82001	 25.40	
  6.800	 96.985	 10.62287	  4.05017	  4.59640	  6.83862	  1.98998	  0.09363	 10.85504	709.94000	 25.40	
  6.787	110.754	 10.62579	  3.53580	  5.15792	  6.66884	  2.12126	  0.08783	 10.85286	709.85999	 25.40	
  6.792	124.591	 10.62633	  3.08238	  5.67810	  6.36282	  2.36445	  0.07304	 10.84899	709.97998	 25.40	
  6.795	138.383	 10.63240	  2.72598	  6.12558	  5.95389	  2.71085	  0.05244	 10.85126	709.91998	 25.40	
  6.808	152.311	 10.64495	  2.45637	  6.47569	  5.46423	  3.14253	  0.05068	 10.85691	709.94000	 25.40	
  6.796	166.229	 10.65258	  2.30726	  6.68192	  4.90006	  3.66664	  0.05037	 10.85405	710.01001	 25.40	
  8.491	168.704	 10.51452	  1.62347	  7.21741	  4.76051	  3.52606	 -0.05064	 10.85096	709.95001	 25.40	
  8.502	157.493	 10.50970	  1.74466	  7.04792	  5.34319	  2.98732	 -0.04633	 10.85484	709.94000	 25.40	
  8.494	146.194	 10.50323	  1.96283	  6.74886	  5.87678	  2.51222	 -0.05276	 10.85138	709.82001	 25.40	
  8.495	135.039	 10.49776	  2.26079	  6.36024	  6.36765	  2.09895	 -0.04911	 10.85143	709.92999	 25.40	
  8.487	123.723	 10.49170	  2.64845	  5.87782	  6.78643	  1.76131	 -0.02622	 10.85469	709.91998	 25.40	
  8.492	112.575	 10.49099	  3.09017	  5.35011	  7.10313	  1.51613	 -0.01372	 10.85815	709.92999	 25.40	
  8.510	101.220	 10.47703	  3.60744	  4.76333	  7.31069	  1.35675	 -0.01866	 10.85026	709.94000	 25.30	
  8.500	 90.000	 10.48598	  4.16463	  4.18437	  7.39552	  1.29839	 -0.00365	 10.85917	709.90997	 25.30	
  8.510	 78.780	 10.47427	  4.72895	  3.61902	  7.35017	  1.32406	  0.02407	 10.85348	709.90002	 25.30	
  8.492	 67.425	 10.47684	  5.31298	  3.07985	  7.17396	  1.45694	  0.05023	 10.85320	710.00000	 25.30	
  8.487	 56.277	 10.48040	  5.85519	  2.61442	  6.88655	  1.67561	  0.05745	 10.85283	710.04999	 25.30	
  8.495	 44.961	 10.49062	  6.35481	  2.20921	  6.50424	  1.98028	  0.06609	 10.85927	709.95001	 25.30	
  8.494	 33.806	 10.48971	  6.76690	  1.88861	  6.03152	  2.36388	  0.09085	 10.85475	710.00000	 25.30	
  8.502	 22.507	 10.49133	  7.09027	  1.64736	  5.50569	  2.81134	  0.10593	 10.85491	710.02002	 25.30	
  8.491	 11.296	 10.49885	  7.30160	  1.50480	  4.93874	  3.33238	  0.09937	 10.85029	709.94000	 25.30	
  8.500	  0.000	 10.50816	  7.39379	  1.45206	  4.35074	  3.90223	  0.08568	 10.85604	709.98999	 25.30	
  8.491	-11.296	 10.51310	  7.35301	  1.49005	  3.79701	  4.47461	  0.07582	 10.85096	709.92999	 25.30	
  8.502	-22.507	 10.52416	  7.19403	  1.61572	  3.26793	  5.05995	  0.06057	 10.85535	709.87000	 25.30	
  8.494	-33.806	 10.53405	  6.90997	  1.84022	  2.79254	  5.61997	  0.04103	 10.85535	709.91998	 25.30	
  8.495	-44.961	 10.54224	  6.53173	  2.14693	  2.39680	  6.11032	  0.02009	 10.85866	709.84998	 25.30	
  8.487	-56.277	 10.54810	  6.06458	  2.53735	  2.07072	  6.52678	  0.00714	 10.85576	709.88000	 25.20	
  8.492	-67.425	 10.55070	  5.54411	  2.98540	  1.82727	  6.84893	 -0.00921	 10.85217	709.90997	 25.20	
  8.510	-78.780	 10.55405	  4.97517	  3.50683	  1.66331	  7.07015	 -0.02683	 10.85434	709.89001	 25.20	
  8.500	-90.000	 10.56327	  4.40743	  4.06480	  1.61204	  7.15145	 -0.03717	 10.85639	709.91998	 25.20	
  8.510	-101.220	 10.55082	  3.83996	  4.63913	  1.63319	  7.10495	 -0.04049	 10.84879	709.84003	 25.20	
  8.492	-112.575	 10.55702	  3.30534	  5.22908	  1.76518	  6.93323	 -0.04859	 10.85223	709.98999	 25.20	
  8.487	-123.723	 10.56251	  2.83526	  5.77200	  1.98128	  6.65211	 -0.04935	 10.85904	709.79999	 25.20	
  8.495	-135.039	 10.54928	  2.41690	  6.25626	  2.27772	  6.25685	 -0.04979	 10.84966	709.78998	 25.20	
  8.494	-146.194	 10.54513	  2.08211	  6.66973	  2.65294	  5.79279	 -0.04543	 10.84682	709.84998	 25.20	
  8.502	-157.493	 10.54498	  1.82400	  6.99491	  3.11615	  5.25381	 -0.04566	 10.85768	709.92999	 25.20	
  8.491	-168.704	 10.54091	  1.67057	  7.19413	  3.63693	  4.68068	 -0.05925	 10.85518	709.95001	 25.20	
  8.500	180.000	 10.52817	  1.59584	  7.27154	  4.17877	  4.10327	 -0.06248	 10.85476	709.87000	 25.20	
 10.200	180.000	 10.35761	  0.95084	  7.76311	  4.00565	  3.96710	 -0.16576	 10.85099	709.89001	 25.20	
 10.191	-170.497	 10.36982	  1.01039	  7.69492	  3.45495	  4.54904	 -0.16423	 10.85553	709.83002	 25.20	
 10.210	-161.034	 10.36699	  1.13986	  7.51664	  2.91675	  5.13680	 -0.14899	 10.84757	709.84003	 25.10	
 10.194	-151.526	 10.38605	  1.35492	  7.24515	  2.43493	  5.71049	 -0.13462	 10.86319	709.84003	 25.10	
 10.190	-142.105	 10.38001	  1.64233	  6.87173	  2.02340	  6.21104	 -0.13293	 10.84659	709.82001	 25.10	
 10.215	-132.646	 10.38615	  1.99358	  6.42388	  1.65768	  6.67957	 -0.13898	 10.85270	709.90002	 25.10	
 10.203	-123.092	 10.38970	  2.42074	  5.90772	  1.36640	  7.07172	 -0.14269	 10.85185	709.88000	 25.10	
 10.192	-113.678	 10.38933	  2.89102	  5.35675	  1.15106	  7.36544	 -0.13635	 10.85129	709.87000	 25.10	
 10.208	-104.249	 10.38545	  3.40862	  4.77725	  1.00729	  7.56410	 -0.12927	 10.85057	709.82001	 25.10	
 10.210	-94.801	 10.38324	  3.96791	  4.18213	  0.94299	  7.65203	 -0.12823	 10.84798	709.85999	 25.10	
 10.210	-85.199	 10.38829	  4.55932	  3.59820	  0.96331	  7.63535	 -0.12415	 10.85549	709.91998	 25.10	
 10.208	-75.751	 10.38169	  5.14061	  3.04380	  1.05131	  7.50049	 -0.11611	 10.85099	709.89001	 25.10	
 10.192	-66.322	 10.37321	  5.70526	  2.53786	  1.21971	  7.26056	 -0.10389	 10.85017	709.89001	 25.10	
 10.203	-56.908	 10.36638	  6.23339	  2.08638	  1.45613	  6.93167	 -0.09858	 10.84889	709.96002	 25.10	
 10.215	-47.354	 10.36289	  6.72462	  1.68322	  1.77641	  6.50836	 -0.08401	 10.84891	709.85999	 25.10	
 10.190	-37.895	 10.36122	  7.14335	  1.35801	  2.16183	  6.01909	 -0.06421	 10.85358	709.95001	 25.10	
 10.194	-28.474	 10.35419	  7.48009	  1.10357	  2.60448	  5.48604	 -0.03904	 10.85798	709.96997	 25.10	
 10.210	-18.966	 10.33953	  7.72098	  0.91993	  3.10050	  4.89703	 -0.02148	 10.85229	709.92999	 25.10	
 10.191	 -9.503	 10.33829	  7.85116	  0.82479	  3.64814	  4.30407	 -0.00892	 10.85349	709.95001	 25.10	
 10.200	  0.000	 10.32569	  7.87929	  0.79385	  4.21132	  3.71938	 -0.00027	 10.84886	709.96997	 25.10	
 10.191	  9.503	 10.32003	  7.79829	  0.84598	  4.80303	  3.14522	  0.01024	 10.85083	709.95001	 25.10	
 10.210	 18.966	 10.30903	  7.61588	  0.95561	  5.38557	  2.60594	  0.02216	 10.85248	709.91998	 25.10	
 10.194	 28.474	 10.31061	  7.33486	  1.15523	  5.94164	  2.13216	  0.01518	 10.85866	709.84998	 25.00	
 10.190	 37.895	 10.30516	  6.95598	  1.43151	  6.45608	  1.71154	 -0.00762	 10.85737	709.97998	 25.00	
 10.215	 47.354	 10.29830	  6.50067	  1.76979	  6.91975	  1.34150	 -0.04261	 10.85225	709.83002	 25.00	
 10.203	 56.908	 10.29202	  5.98239	  2.18456	  7.30555	  1.05145	 -0.05574	 10.85217	709.79999	 25.00	
 10.192	 66.322	 10.29398	  5.43175	  2.65770	  7.58635	  0.85299	 -0.05598	 10.85184	709.78998	 25.00	
 10.208	 75.751	 10.30135	  4.85654	  3.18375	  7.78112	  0.72186	 -0.06947	 10.85905	709.90997	 25.00	
 10.210	 85.199	 10.30247	  4.27144	  3.74701	  7.87305	  0.65772	 -0.10077	 10.86058	709.87000	 25.00	
 10.210	 94.801	 10.30130	  3.69235	  4.33315	  7.84941	  0.67404	 -0.12213	 10.85459	709.83002	 25.00	
 10.208	104.249	 10.30770	  3.14842	  4.92787	  7.72500	  0.76259	 -0.12709	 10.85822	709.90002	 25.00	
 10.192	113.678	 10.30572	  2.64782	  5.50143	  7.49325	  0.93045	 -0.12546	 10.84905	709.98999	 25.00	
 10.203	123.092	 10.30818	  2.19493	  6.04178	  7.17661	  1.15712	 -0.13641	 10.85328	709.96002	 25.00	
 10.215	132.646	 10.31560	  1.80101	  6.54618	  6.76976	  1.47712	 -0.15936	 10.85588	710.00000	 25.00	
 10.190	142.105	 10.32555	  1.48305	  6.97764	  6.27989	  1.87932	 -0.16270	 10.85687	709.87000	 25.00	
 10.194	151.526	 10.33091	  1.23417	  7.31947	  5.74581	  2.32918	 -0.15654	 10.84989	710.04999	 25.00	
 10.210	161.034	 10.34051	  1.06250	  7.57685	  5.19003	  2.82408	 -0.15106	 10.85786	709.89001	 25.00	
 10.191	170.497	 10.35006	  0.97042	  7.72341	  4.59667	  3.38344	 -0.15605	 10.85424	709.90997	 25.00	
 11.899	171.783	 10.14252	  0.32696	  8.19243	  4.39804	  3.21325	 -0.25441	 10.85599	709.96002	 25.00	
 11.890	163.610	 10.13307	  0.40422	  8.06231	  4.99137	  2.65772	 -0.24639	 10.85427	709.88000	 25.00	
 11.889	155.445	 10.12424	  0.54830	  7.84143	  5.55954	  2.15289	 -0.25320	 10.85391	709.95001	 24.90	
 11.909	147.299	 10.10989	  0.74029	  7.53573	  6.12160	  1.66859	 -0.26942	 10.84827	709.90997	 24.90	
 11.902	139.148	 10.10855	  1.01007	  7.15649	  6.64452	  1.24682	 -0.27214	 10.85537	709.85999	 24.90	
 11.894	130.867	 10.10395	  1.34781	  6.69673	  7.11565	  0.88533	 -0.26381	 10.85564	710.02002	 24.90	
 11.897	122.732	 10.09640	  1.74358	  6.18438	  7.51130	  0.59523	 -0.24613	 10.85140	709.97998	 24.90	
 11.903	114.597	 10.09169	  2.17698	  5.64055	  7.84628	  0.35117	 -0.23951	 10.85180	709.96002	 24.90	
 11.893	106.346	 10.08828	  2.66860	  5.05678	  8.09645	  0.18189	 -0.24139	 10.85465	709.95001	 24.90	
 11.892	 98.155	 10.08475	  3.20739	  4.45641	  8.25832	  0.07344	 -0.24210	 10.85153	710.03003	 24.90	
 11.900	 90.000	 10.08513	  3.76625	  3.87022	  8.33197	  0.02306	 -0.23192	 10.86017	710.04999	 24.90	
 11.892	 81.845	 10.08126	  4.34484	  3.29261	  8.30048	  0.04334	 -0.20952	 10.85318	710.00000	 24.90	
 11.893	 73.654	 10.08223	  4.93739	  2.73882	  8.18162	  0.12473	 -0.18500	 10.85632	709.90997	 24.90	
 11.903	 65.403	 10.07859	  5.52556	  2.21575	  7.96896	  0.25974	 -0.16949	 10.85978	710.00000	 24.90	
 11.897	 57.268	 10.07720	  6.08217	  1.75745	  7.66517	  0.46607	 -0.16620	 10.85001	709.91998	 24.90	
 11.894	 49.133	 10.07240	  6.60240	  1.33602	  7.29479	  0.72168	 -0.15408	 10.84666	709.95001	 24.90	
 11.902	 40.852	 10.07616	  7.08853	  0.97836	  6.85096	  1.05259	 -0.12545	 10.85484	709.90002	 24.90	
 11.909	 32.701	 10.08438	  7.50733	  0.68559	  6.34686	  1.44715	 -0.08916	 10.85543	709.90002	 24.90	
 11.889	 24.555	 10.09366	  7.83828	  0.46395	  5.79379	  1.90436	 -0.06831	 10.85220	709.92999	 24.90	
 11.890	 16.390	 10.09105	  8.08720	  0.30375	  5.22964	  2.39527	 -0.07176	 10.84633	709.92999	 24.90	
 11.899	  8.217	 10.10207	  8.25958	  0.19768	  4.63459	  2.93672	 -0.08202	 10.85265	710.02002	 24.90	
 11.900	  0.000	 10.10622	  8.33019	  0.15268	  4.03936	  3.50997	 -0.09383	 10.84670	709.97998	 24.80	
 11.899	 -8.217	 10.12038	  8.31479	  0.17775	  3.47621	  4.09909	 -0.10141	 10.85646	709.94000	 24.80	
 11.890	-16.390	 10.12654	  8.19317	  0.26687	  2.92021	  4.70033	 -0.11183	 10.85194	709.96997	 24.80	
 11.889	-24.555	 10.13247	  7.98975	  0.40839	  2.40811	  5.29137	 -0.12839	 10.85297	709.96002	 24.80	
 11.909	-32.701	 10.14124	  7.70362	  0.61433	  1.94797	  5.85332	 -0.14612	 10.85180	709.94000	 24.80	
 11.902	-40.852	 10.14645	  7.33598	  0.88529	  1.53323	  6.38565	 -0.16229	 10.85372	710.04999	 24.80	
 11.894	-49.133	 10.15209	  6.88092	  1.23618	  1.16765	  6.87773	 -0.17309	 10.84768	709.96997	 24.80	
 11.897	-57.268	 10.15681	  6.38144	  1.63053	  0.86839	  7.29019	 -0.17969	 10.84670	710.03998	 24.80	
 11.903	-65.403	 10.16510	  5.84761	  2.07678	  0.63890	  7.63065	 -0.18148	 10.84985	710.03998	 24.80	
 11.893	-73.654	 10.17532	  5.27481	  2.58297	  0.47695	  7.88334	 -0.18900	 10.85235	709.95001	 24.80	
 11.892	-81.845	 10.17594	  4.68172	  3.12792	  0.36888	  8.04369	 -0.19212	 10.84662	709.94000	 24.80	
 11.900	-90.000	 10.18499	  4.10130	  3.69372	  0.31973	  8.12132	 -0.19593	 10.85481	710.03998	 24.80	
 11.892	-98.155	 10.18199	  3.52967	  4.27523	  0.34191	  8.08675	 -0.19167	 10.84813	710.02002	 24.80	
 11.893	-106.346	 10.18478	  2.97174	  4.87657	  0.42253	  7.96674	 -0.19539	 10.85014	709.96997	 24.80	
 11.903	-114.597	 10.18212	  2.45576	  5.45987	  0.55884	  7.75280	 -0.20415	 10.84620	710.10999	 24.80	
 11.897	-122.732	 10.18218	  1.99151	  6.02237	  0.76461	  7.46170	 -0.21338	 10.85317	710.03998	 24.80	
 11.894	-130.867	 10.18337	  1.57061	  6.54222	  1.03827	  7.07774	 -0.21545	 10.85306	710.04999	 24.80	
 11.902	-139.148	 10.18645	  1.20071	  7.02421	  1.38243	  6.61851	 -0.21611	 10.85429	709.92999	 24.80	
 11.909	-147.299	 10.17676	  0.89670	  7.42724	  1.76960	  6.11317	 -0.21376	 10.84962	709.96997	 24.80	
 11.889	-155.445	 10.17799	  0.66763	  7.74965	  2.21084	  5.57285	 -0.21926	 10.85004	709.94000	 24.80	
 11.890	-163.610	 10.16868	  0.48779	  8.00038	  2.71397	  4.98999	 -0.23950	 10.85266	709.90997	 24.80	
 11.899	-171.783	 10.16221	  0.36634	  8.16131	  3.24947	  4.39030	 -0.25739	 10.85301	709.90002	 24.80	
 11.900	180.000	 10.14717	  0.31595	  8.21968	  3.80501	  3.80154	 -0.26186	 10.84959	709.96997	 24.80	
 13.600	180.000	  9.90659	 -0.31137	  8.65237	  3.57856	  3.61127	 -0.34543	 10.85172	709.96002	 24.70	
 13.608	-172.853	  9.91428	 -0.27274	  8.60554	  3.02713	  4.18857	 -0.33699	 10.85730	709.96997	 24.70	
 13.611	-165.583	  9.91854	 -0.17651	  8.45970	  2.48028	  4.79381	 -0.31876	 10.84970	709.96002	 24.70	
 13.601	-158.353	  9.92998	 -0.01528	  8.23323	  1.96692	  5.39523	 -0.29222	 10.85108	709.90002	 24.70	
 13.609	-151.210	  9.93137	  0.19073	  7.92878	  1.51977	  5.95025	 -0.27565	 10.84631	709.91998	 24.70	
 13.611	-143.999	  9.93982	  0.45571	  7.56043	  1.10274	  6.49392	 -0.26661	 10.85294	709.84998	 24.70	
 13.601	-136.825	  9.93983	  0.76488	  7.12712	  0.73689	  6.98715	 -0.26047	 10.85202	709.91998	 24.70	
 13.596	-129.640	  9.94764	  1.12979	  6.64492	  0.43284	  7.43205	 -0.25570	 10.85881	709.95001	 24.70	
