FileType=PCF
NHL=14
Date=03/18/19	10:44:23
Facility=APL
Serial=16071-8
Customer=NASA
NP=6
Mach=0.380000
Calibration=1:1
CalPts=490
TstPts=95
PortNumbering=AP Standard
Units=Torr C m/s kg/m^3 deg mm 
Theta[deg]	Phi[deg]	P1[Torr]	P2[Torr]	P3[Torr]	P4[Torr]	P5[Torr]	P6[Torr]	Pt[Torr]	Ps[Abs,Torr]	Ts[C]	
  0.000	  0.000	 66.47152	 29.27476	 28.42584	 29.64337	 27.00061	  1.58267	 66.54667	710.28998	 37.10	
  1.691	128.401	 66.42831	 26.68667	 30.72768	 32.24224	 24.05644	  1.48845	 66.53227	710.31000	 37.10	
  1.692	 77.194	 66.45924	 29.86046	 27.54836	 33.08554	 23.27755	  1.59861	 66.55829	710.22998	 37.00	
  1.699	 26.182	 66.46480	 32.49952	 24.89076	 31.32520	 25.07861	  1.64561	 66.52786	710.19000	 37.00	
  1.699	-26.182	 66.45239	 32.63686	 24.81529	 28.04025	 28.52155	  1.60522	 66.49598	710.15002	 36.90	
  1.692	-77.194	 66.45766	 30.18469	 27.39027	 26.02782	 30.68827	  1.51533	 66.51662	710.26001	 36.90	
  1.691	-128.401	 66.43074	 26.94116	 30.60479	 26.60823	 30.08194	  1.42312	 66.51596	710.20001	 36.90	
  1.700	180.000	 66.39619	 25.45123	 32.06749	 29.36707	 27.04909	  1.42172	 66.48229	710.22998	 36.90	
  3.400	180.000	 66.31380	 21.67461	 35.48939	 28.92086	 26.97561	  1.17986	 66.52645	710.20001	 36.80	
  3.388	-152.325	 66.31927	 22.60081	 34.58729	 25.60062	 30.51889	  1.17366	 66.47142	710.23999	 36.80	
  3.397	-124.529	 66.38609	 25.00033	 32.18904	 23.10256	 33.24147	  1.20707	 66.52422	710.33002	 36.80	
  3.399	-96.763	 66.37457	 28.34393	 28.74282	 22.00865	 34.38854	  1.26743	 66.50362	710.26001	 36.70	
  3.394	-69.283	 66.34592	 31.90011	 25.10501	 22.53522	 33.77102	  1.35856	 66.46488	710.21002	 36.70	
  3.400	-41.398	 66.34642	 34.75367	 22.28920	 24.57953	 31.54518	  1.46600	 66.46381	710.17999	 36.70	
  3.401	-14.021	 66.31985	 36.19143	 20.82455	 27.78523	 28.18849	  1.55707	 66.48137	710.21002	 36.60	
  3.401	 14.021	 66.25010	 36.04268	 20.87658	 31.34730	 24.48218	  1.60997	 66.43977	710.32001	 36.60	
  3.400	 41.398	 66.21635	 34.26505	 22.49245	 34.29223	 21.56015	  1.59501	 66.46442	710.28003	 36.60	
  3.394	 69.283	 66.16882	 31.17386	 25.41278	 36.08029	 19.76608	  1.51342	 66.44104	710.23999	 36.60	
  3.399	 96.763	 66.12614	 27.55201	 28.99476	 36.32552	 19.46759	  1.39734	 66.40150	710.29999	 36.50	
  3.397	124.529	 66.14188	 24.40587	 32.35635	 34.97817	 20.74225	  1.29904	 66.40529	710.22998	 36.50	
  3.388	152.325	 66.17702	 22.26760	 34.64354	 32.29055	 23.38998	  1.21392	 66.39661	710.26001	 36.50	
  5.099	161.165	 65.84074	 18.24553	 38.22414	 31.87498	 22.96660	  0.83898	 66.41036	710.32001	 36.40	
  5.109	142.013	 65.76566	 19.69249	 36.42324	 35.08994	 19.81374	  0.87431	 66.38088	710.34998	 36.40	
  5.095	123.033	 65.74883	 22.14863	 33.76773	 37.66285	 17.51810	  0.98242	 66.40800	710.21997	 36.40	
  5.105	104.191	 65.71048	 25.21628	 30.45702	 39.33480	 16.08702	  1.08548	 66.38405	710.20001	 36.40	
  5.093	 85.207	 65.73294	 28.76943	 26.76326	 39.78168	 15.75212	  1.18414	 66.41198	710.32001	 36.30	
  5.104	 66.290	 65.73090	 32.43001	 23.23149	 39.01208	 16.42796	  1.30520	 66.38803	710.28998	 36.30	
  5.094	 47.331	 65.72815	 35.59147	 20.30783	 37.07226	 18.10590	  1.38472	 66.38412	710.25000	 36.30	
  5.089	 28.397	 65.78692	 37.98806	 18.20830	 34.34635	 20.66705	  1.44210	 66.39639	710.33002	 36.30	
  5.096	  9.576	 65.81603	 39.37003	 17.07473	 30.97616	 23.88654	  1.42207	 66.37496	710.38000	 36.30	
  5.096	 -9.576	 65.86575	 39.52688	 17.00653	 27.33742	 27.55544	  1.37342	 66.36844	710.35999	 36.20	
  5.089	-28.397	 65.94008	 38.48225	 17.98451	 24.00099	 31.23534	  1.28290	 66.38477	710.35999	 36.20	
  5.094	-47.331	 65.95788	 36.35427	 19.92275	 21.07506	 34.31311	  1.16695	 66.36487	710.37000	 36.20	
  5.104	-66.290	 66.03138	 33.42526	 22.70431	 19.07154	 36.53972	  1.07804	 66.40291	710.34003	 36.10	
  5.093	-85.207	 66.03127	 29.84180	 26.23150	 18.14107	 37.64752	  0.96376	 66.38751	710.38000	 36.10	
  5.105	-104.191	 66.01332	 26.13050	 30.00180	 18.28436	 37.48463	  0.89438	 66.35992	710.32001	 36.10	
  5.095	-123.033	 65.99354	 22.84165	 33.46334	 19.50116	 36.09065	  0.84009	 66.38121	710.33002	 36.10	
  5.109	-142.013	 65.92749	 20.19324	 36.22844	 21.71494	 33.62965	  0.81008	 66.34494	710.21002	 36.00	
  5.099	-161.165	 65.88260	 18.47220	 38.06287	 24.70552	 30.31363	  0.79571	 66.33930	710.26001	 36.00	
  5.100	180.000	 65.85804	 17.80644	 38.75357	 28.26177	 26.53142	  0.78261	 66.36854	710.46002	 36.00	
  6.800	180.000	 65.30115	 14.03410	 41.86555	 27.45436	 26.06283	  0.34532	 66.35603	710.40997	 36.00	
  6.796	-166.229	 65.35796	 14.52531	 41.38750	 24.07249	 29.73977	  0.34174	 66.36207	710.28998	 35.90	
  6.808	-152.311	 65.36050	 15.75795	 40.05946	 20.94354	 33.20073	  0.37796	 66.32256	710.35999	 35.90	
  6.795	-138.383	 65.42082	 17.72311	 37.83417	 18.31448	 36.16916	  0.38681	 66.32516	710.29999	 35.90	
  6.792	-124.591	 65.48181	 20.24841	 35.08586	 16.31896	 38.55080	  0.38881	 66.35881	710.31000	 35.90	
  6.787	-110.754	 65.46243	 23.25903	 31.84873	 15.01481	 40.08897	  0.43928	 66.29424	710.38000	 35.90	
  6.800	-96.985	 65.47934	 26.57540	 28.28594	 14.37803	 40.85756	  0.49963	 66.32304	710.35999	 35.90	
  6.800	-83.015	 65.48305	 30.24561	 24.48972	 14.48418	 40.76302	  0.55021	 66.32596	710.34998	 35.90	
  6.787	-69.246	 65.45748	 33.71283	 21.30625	 15.39231	 39.71674	  0.64128	 66.30938	710.32001	 35.80	
  6.792	-55.409	 65.37276	 36.77414	 18.41476	 16.82248	 37.86029	  0.70828	 66.28800	710.34003	 35.80	
  6.795	-41.617	 65.36849	 39.42675	 16.09313	 19.04591	 35.30866	  0.79393	 66.30560	710.32001	 35.80	
  6.808	-27.689	 65.33205	 41.41272	 14.40065	 21.91491	 32.16625	  0.92589	 66.33614	710.37000	 35.80	
  6.796	-13.771	 65.26159	 42.45728	 13.37026	 25.09831	 28.51017	  1.03130	 66.32798	710.41998	 35.70	
  6.800	  0.000	 65.17921	 42.69418	 13.02518	 28.55382	 24.92059	  1.09189	 66.29730	710.35999	 35.70	
  6.796	 13.771	 65.12537	 42.10240	 13.50136	 32.12412	 21.53507	  1.14480	 66.30243	710.34998	 35.70	
  6.808	 27.689	 65.05005	 40.70893	 14.63173	 35.37681	 18.40046	  1.13324	 66.28519	710.39001	 35.70	
  6.795	 41.617	 65.02665	 38.41450	 16.52867	 38.18742	 15.87025	  0.86739	 66.30376	710.31000	 35.70	
  6.792	 55.409	 64.99552	 35.60767	 18.96522	 40.56900	 13.84043	  0.99846	 66.28587	710.28003	 35.70	
  6.787	 69.246	 64.97461	 32.33078	 21.94140	 42.03732	 12.52490	  0.90322	 66.29704	710.26001	 35.70	
  6.800	 83.015	 64.95916	 28.71919	 25.20773	 42.82211	 11.81644	  0.77830	 66.28950	710.28998	 35.60	
  6.800	 96.985	 64.94743	 25.23433	 28.90675	 42.64618	 11.93372	  0.69417	 66.26716	710.39001	 35.60	
  6.787	110.754	 64.98584	 22.06542	 32.36237	 41.62123	 12.83893	  0.61529	 66.27177	710.21997	 35.60	
  6.792	124.591	 65.04122	 19.25057	 35.48854	 39.92002	 14.37325	  0.52792	 66.30516	710.15002	 35.60	
  6.795	138.383	 65.06189	 16.97919	 38.14925	 37.32650	 16.60172	  0.25352	 66.25352	710.22998	 35.60	
  6.808	152.311	 65.11591	 15.27228	 40.26562	 34.35204	 19.36573	  0.40973	 66.29160	710.20001	 35.60	
  6.796	166.229	 65.15582	 14.29206	 41.44426	 30.98688	 22.56759	  0.36865	 66.26113	710.12000	 35.60	
  8.491	168.704	 64.41685	 10.38941	 44.63892	 30.13855	 21.93230	 -0.19192	 66.31456	710.32001	 35.60	
  8.502	157.493	 64.33927	 11.11538	 43.58186	 33.64470	 18.59558	 -0.28754	 66.29993	710.19000	 35.60	
  8.494	146.194	 64.28265	 12.52112	 41.72071	 36.81303	 15.67730	 -0.37868	 66.25260	710.21002	 35.50	
  8.495	135.039	 64.20575	 14.37541	 39.46422	 39.77134	 13.08649	 -0.38420	 66.25858	710.21997	 35.50	
  8.487	123.723	 64.17835	 16.76329	 36.62255	 42.17196	 10.94844	  0.02138	 66.27622	710.22998	 35.50	
  8.492	112.575	 64.12292	 19.48614	 33.46822	 44.13409	  9.35485	 -0.26056	 66.24834	710.28003	 35.50	
  8.510	101.220	 64.09134	 22.64553	 29.92345	 45.45699	  8.29704	  0.11796	 66.26014	710.25000	 35.50	
  8.500	 90.000	 64.07074	 26.04512	 26.21025	 45.93264	  8.00587	  0.23894	 66.24857	710.20001	 35.50	
  8.510	 78.780	 64.02731	 29.54077	 22.75214	 45.70918	  8.22719	  0.32822	 66.21809	710.25000	 35.40	
  8.492	 67.425	 64.04740	 33.25473	 19.44322	 44.65506	  8.98363	  0.35462	 66.24014	710.27002	 35.40	
  8.487	 56.277	 64.09126	 36.52459	 16.56542	 42.94368	 10.31142	  0.53708	 66.26714	710.17999	 35.40	
  8.495	 44.961	 64.10972	 39.50136	 14.05939	 40.72260	 12.24340	  0.28721	 66.25252	710.25000	 35.40	
  8.494	 33.806	 64.12625	 41.96717	 12.05725	 37.93555	 14.61705	  0.73296	 66.22579	710.27002	 35.40	
  8.502	 22.507	 64.14691	 43.76206	 10.48354	 34.90455	 17.34645	  0.74270	 66.22069	710.23999	 35.40	
  8.491	 11.296	 64.22258	 45.07815	  9.54203	 31.46066	 20.58389	  0.76516	 66.23392	710.28003	 35.30	
  8.500	  0.000	 64.27573	 45.64846	  9.20165	 27.78180	 24.05578	  0.70665	 66.22856	710.28998	 35.30	
  8.491	-11.296	 64.36407	 45.45389	  9.45647	 24.40265	 27.56649	  0.61477	 66.24662	710.23999	 35.30	
  8.502	-22.507	 64.44350	 44.52436	 10.24379	 21.07329	 31.34534	  0.49999	 66.27207	710.23999	 35.30	
  8.494	-33.806	 64.49184	 42.87202	 11.65206	 18.03108	 34.79889	  0.36967	 66.23989	710.15002	 35.30	
  8.495	-44.961	 64.52795	 40.75750	 13.54303	 15.54049	 37.72380	 -0.05273	 66.22105	710.20001	 35.30	
  8.487	-56.277	 64.62574	 37.98041	 15.97643	 13.48805	 40.31591	  0.20194	 66.27952	710.21002	 35.30	
  8.492	-67.425	 64.63847	 34.87671	 18.76102	 11.84106	 42.15218	  0.12994	 66.26550	710.23999	 35.30	
  8.510	-78.780	 64.64848	 31.31464	 21.94955	 10.74851	 43.39285	  0.03844	 66.26900	710.22998	 35.30	
  8.500	-90.000	 64.62289	 27.60205	 25.35763	 10.45901	 43.85117	 -0.01771	 66.21990	710.21997	 35.30	
  8.510	-101.220	 64.66035	 24.20292	 29.15503	 10.61887	 43.66280	 -0.06228	 66.25457	710.23999	 35.30	
  8.492	-112.575	 64.66071	 20.89914	 32.76953	 11.44340	 42.60324	 -0.08134	 66.24354	710.31000	 35.30	
  8.487	-123.723	 64.61478	 17.98059	 35.95137	 12.77119	 41.00859	 -0.34554	 66.20123	710.28998	 35.20	
  8.495	-135.039	 64.60229	 15.36817	 38.93431	 14.67056	 38.74570	 -0.17020	 66.20757	710.33002	 35.20	
  8.494	-146.194	 64.57626	 13.24162	 41.30623	 16.98898	 35.97948	 -0.12744	 66.23875	710.28003	 35.20	
  8.502	-157.493	 64.50191	 11.61847	 43.20581	 19.85561	 32.69974	 -0.15435	 66.21754	710.22998	 35.20	
  8.491	-168.704	 64.47017	 10.58149	 44.44879	 23.08801	 29.07953	 -0.18503	 66.23507	710.28998	 35.20	
  8.500	180.000	 64.39090	 10.19697	 44.89635	 26.41549	 25.41390	 -0.19824	 66.20837	710.38000	 35.20	
 10.200	180.000	 63.39626	  6.41709	 47.78014	 25.31410	 24.68020	 -0.72484	 66.20911	710.44000	 35.20	
 10.191	-170.497	 63.47809	  6.79701	 47.39927	 22.04913	 28.18602	 -0.83394	 66.25489	710.33002	 35.10	
 10.210	-161.034	 63.48899	  7.53327	 46.34175	 18.70056	 31.99456	 -1.01409	 66.21536	710.33002	 35.10	
 10.194	-151.526	 63.58239	  8.93665	 44.65453	 15.73582	 35.47943	 -0.69142	 66.23011	710.34998	 35.10	
 10.190	-142.105	 63.60377	 10.75936	 42.38394	 13.22806	 38.48222	 -0.64143	 66.20151	710.32001	 35.10	
 10.215	-132.646	 63.65240	 12.95317	 39.85752	 10.99373	 41.22345	 -0.88789	 66.23619	710.17999	 35.10	
 10.203	-123.092	 63.65210	 15.57113	 36.77287	  9.16288	 43.41296	 -0.97771	 66.23157	710.40002	 35.10	
 10.192	-113.678	 63.63447	 18.44536	 33.51337	  7.83081	 45.19798	 -0.76298	 66.21561	710.31000	 35.10	
 10.208	-104.249	 63.62321	 21.64878	 29.91107	  6.95083	 46.41914	 -0.68135	 66.21188	710.25000	 35.10	
 10.210	-94.801	 63.64315	 25.09155	 26.14739	  6.65278	 46.94415	 -0.56043	 66.22465	710.22998	 35.10	
 10.210	-85.199	 63.62283	 28.62960	 22.58990	  6.76395	 46.79526	 -0.65792	 66.24432	710.19000	 35.10	
 10.208	-75.751	 63.58240	 32.36381	 19.18586	  7.19960	 46.01989	 -0.49585	 66.23734	710.32001	 35.10	
 10.192	-66.322	 63.56254	 35.81451	 16.11503	  8.31584	 44.50376	 -0.84819	 66.22680	710.17999	 35.00	
 10.203	-56.908	 63.52716	 38.98325	 13.30638	  9.83050	 42.57319	 -0.42895	 66.22622	710.32001	 35.00	
 10.215	-47.354	 63.47657	 41.86861	 10.82106	 11.81229	 40.15696	 -0.70988	 66.22929	710.22998	 35.00	
 10.190	-37.895	 63.45032	 44.19840	  8.80463	 14.24084	 37.19864	 -0.38951	 66.22770	710.31000	 35.00	
 10.194	-28.474	 63.37438	 46.23750	  7.28688	 16.95263	 33.97412	 -0.12006	 66.22452	710.25000	 35.00	
 10.210	-18.966	 63.26531	 47.66957	  6.09321	 20.05761	 30.27637	 -0.23618	 66.18907	710.15997	 35.00	
 10.191	 -9.503	 63.24607	 48.42455	  5.46625	 23.51473	 26.55779	  0.12572	 66.19326	710.28998	 35.00	
 10.200	  0.000	 63.20997	 48.57715	  5.33299	 26.85571	 23.03532	  0.23845	 66.23260	710.15997	 35.00	
 10.191	  9.503	 63.11883	 48.04461	  5.60020	 30.57791	 19.50226	  0.08210	 66.20415	710.15997	 35.00	
 10.210	 18.966	 63.07410	 46.93360	  6.40995	 34.16612	 16.18115	  0.20983	 66.24757	710.25000	 35.00	
 10.194	 28.474	 63.04493	 45.13470	  7.72392	 37.40299	 13.30102	  0.15019	 66.24228	710.16998	 35.00	
 10.190	 37.895	 62.99840	 42.91978	  9.43491	 40.42289	 10.71154	 -0.07251	 66.21564	710.23999	 34.90	
 10.215	 47.354	 62.95426	 40.31657	 11.46278	 43.04871	  8.44981	 -0.53162	 66.22482	710.26001	 34.90	
 10.203	 56.908	 62.90405	 37.21968	 13.97466	 45.37141	  6.60393	 -0.51133	 66.22107	710.26001	 34.90	
 10.192	 66.322	 62.92019	 33.92820	 16.89141	 47.10367	  5.28568	 -0.64368	 66.24307	710.22998	 34.90	
 10.208	 75.751	 62.91785	 30.27588	 20.08994	 48.23092	  4.50573	 -0.52715	 66.20895	710.27002	 34.90	
 10.210	 85.199	 62.93127	 26.74873	 23.53032	 48.74661	  4.09121	 -0.37150	 66.19778	710.13000	 34.90	
 10.210	 94.801	 62.99235	 23.19252	 27.11644	 48.60777	  4.22878	 -0.94659	 66.23880	710.21997	 34.90	
 10.208	104.249	 62.98653	 19.87084	 30.81960	 47.85246	  4.77128	 -0.44573	 66.20654	710.19000	 34.90	
 10.192	113.678	 63.02586	 16.85163	 34.30719	 46.44370	  5.87089	 -0.98480	 66.23093	710.14001	 34.80	
 10.203	123.092	 63.05849	 14.08434	 37.52426	 44.51024	  7.33798	 -0.79341	 66.22903	710.27002	 34.80	
 10.215	132.646	 63.09887	 11.62717	 40.50749	 41.96991	  9.31931	 -0.90400	 66.24171	710.10999	 34.80	
 10.190	142.105	 63.16348	  9.65437	 43.00827	 39.12435	 11.80063	 -1.15252	 66.23257	710.23999	 34.80	
 10.194	151.526	 63.20374	  8.05281	 45.12197	 35.93344	 14.60510	 -1.09858	 66.21651	710.21997	 34.80	
 10.210	161.034	 63.22842	  6.99809	 46.66623	 32.58620	 17.68130	 -1.07689	 66.21465	710.21002	 34.80	
 10.191	170.497	 63.32763	  6.47698	 47.54449	 29.00997	 21.11236	 -0.89780	 66.21774	710.21002	 34.80	
 11.899	171.783	 62.10905	  2.51610	 50.26986	 27.68868	 20.21452	 -1.73563	 66.19289	710.21002	 34.80	
 11.890	163.610	 62.02913	  2.99968	 49.47192	 31.37381	 16.83992	 -1.66446	 66.19804	710.25000	 34.80	
 11.889	155.445	 61.94946	  3.85795	 48.14733	 34.78690	 13.66079	 -1.71090	 66.17409	710.19000	 34.80	
 11.909	147.299	 61.89777	  5.00785	 46.37940	 38.12082	 10.60131	 -1.83476	 66.21137	710.26001	 34.80	
 11.902	139.148	 61.79512	  6.81425	 44.00620	 41.22873	  7.88166	 -1.89819	 66.18384	710.26001	 34.80	
 11.894	130.867	 61.75994	  8.83482	 41.26538	 43.98991	  5.78917	 -1.82326	 66.17358	710.22998	 34.80	
 11.897	122.732	 61.75593	 11.30643	 38.29385	 46.46907	  3.81828	 -1.69403	 66.18703	710.22998	 34.80	
 11.903	114.597	 61.70213	 14.01625	 35.04620	 48.48126	  2.29259	 -1.67707	 66.16878	710.19000	 34.80	
 11.893	106.346	 61.68649	 17.05050	 31.52123	 49.98830	  1.21288	 -1.69879	 66.19678	710.22998	 34.80	
 11.892	 98.155	 61.65621	 20.36766	 27.73156	 50.92002	  0.59155	 -1.72883	 66.15865	710.16998	 34.80	
 11.900	 90.000	 61.63125	 23.81652	 24.22520	 51.36566	  0.23997	 -1.64224	 66.18485	710.20001	 34.80	
 11.892	 81.845	 61.60396	 27.31477	 20.76097	 51.23237	  0.32546	 -1.51402	 66.20100	710.15997	 34.80	
 11.893	 73.654	 61.55320	 30.79163	 17.40071	 50.50477	  0.82842	 -1.39710	 66.16880	710.32001	 34.80	
 11.903	 65.403	 61.56453	 34.51522	 14.25136	 49.27363	  1.69965	 -1.31928	 66.18035	710.21002	 34.80	
 11.897	 57.268	 61.59856	 37.84948	 11.41904	 47.51383	  2.95876	 -1.31858	 66.20617	710.25000	 34.80	
 11.894	 49.133	 61.59410	 40.95179	  8.86218	 45.28987	  4.60042	 -1.27489	 66.21733	710.20001	 34.80	
 11.902	 40.852	 61.58347	 43.67411	  6.52610	 42.60428	  6.76905	 -1.09824	 66.18815	710.17999	 34.80	
 11.909	 32.701	 61.65056	 46.15751	  4.72678	 39.75408	  9.10398	 -0.81294	 66.22226	710.09998	 34.80	
 11.889	 24.555	 61.69204	 48.17981	  3.30816	 36.53105	 11.89267	 -0.70038	 66.19496	710.19000	 34.80	
 11.890	 16.390	 61.76181	 49.73165	  2.27599	 33.19024	 14.93803	 -0.72686	 66.20233	710.09003	 34.80	
 11.899	  8.217	 61.80675	 50.73849	  1.60119	 29.51493	 18.31266	 -0.80281	 66.19209	710.09998	 34.80	
 11.900	  0.000	 61.92310	 51.25304	  1.33945	 25.94512	 21.85133	 -0.81866	 66.23359	710.15002	 34.70	
 11.899	 -8.217	 61.97227	 51.15007	  1.55072	 22.50826	 25.44464	 -0.73264	 66.21397	710.15997	 34.70	
 11.890	-16.390	 62.02528	 50.46810	  2.20159	 19.13307	 29.01760	 -0.94220	 66.20596	710.15997	 34.70	
 11.889	-24.555	 62.07716	 49.27178	  3.02726	 15.93410	 32.82232	 -0.98580	 66.19743	710.26001	 34.70	
 11.909	-32.701	 62.08710	 47.58411	  4.26126	 13.02569	 36.21975	 -1.07879	 66.19423	710.14001	 34.70	
 11.902	-40.852	 62.12652	 45.32074	  5.98935	 10.37069	 39.39986	 -1.19639	 66.18248	710.12000	 34.70	
 11.894	-49.133	 62.15895	 42.70994	  8.07872	  8.10792	 42.21341	 -1.25313	 66.17298	710.21002	 34.70	
 11.897	-57.268	 62.21157	 39.83297	 10.43736	  6.16168	 44.64543	 -1.25458	 66.17607	710.17999	 34.70	
 11.903	-65.403	 62.27304	 36.63984	 13.24815	  4.75838	 46.72517	 -1.27855	 66.19040	710.13000	 34.70	
 11.893	-73.654	 62.29586	 33.16848	 16.35251	  3.59942	 48.25436	 -1.22105	 66.17249	710.12000	 34.70	
 11.892	-81.845	 62.31586	 29.42770	 19.70737	  2.97686	 49.20073	 -1.30510	 66.14522	710.23999	 34.70	
 11.900	-90.000	 62.34672	 25.90420	 23.18654	  2.66069	 49.64527	 -1.07507	 66.15582	710.17999	 34.70	
 11.892	-98.155	 62.38926	 22.48565	 26.70659	  2.80998	 49.50504	 -1.19766	 66.16883	710.23999	 34.70	
 11.893	-106.346	 62.43167	 19.12150	 30.53630	  3.34201	 48.84261	 -1.25742	 66.22389	710.12000	 34.70	
 11.903	-114.597	 62.36285	 15.90178	 34.08186	  4.17186	 47.51654	 -1.28340	 66.13494	710.13000	 34.70	
 11.897	-122.732	 62.38734	 12.97735	 37.39539	  5.42302	 45.72787	 -1.31830	 66.17971	710.13000	 34.70	
 11.894	-130.867	 62.38756	 10.36864	 40.49673	  7.21062	 43.36999	 -1.39121	 66.17234	710.23999	 34.70	
 11.902	-139.148	 62.35822	  8.08848	 43.22026	  9.26434	 40.82512	 -1.09996	 66.15003	710.20001	 34.70	
 11.909	-147.299	 62.34040	  6.16775	 45.70911	 11.64153	 37.87497	 -1.41871	 66.16785	710.21997	 34.60	
 11.889	-155.445	 62.27269	  4.62536	 47.65495	 14.37362	 34.63240	 -1.46838	 66.15291	710.15002	 34.60	
 11.890	-163.610	 62.24136	  3.56974	 49.12778	 17.47460	 31.03332	 -1.60661	 66.14568	710.26001	 34.60	
 11.899	-171.783	 62.18887	  2.77716	 50.08600	 20.77649	 27.26384	 -1.70544	 66.16889	710.28003	 34.60	
 11.900	180.000	 62.08340	  2.38637	 50.43264	 24.12576	 23.75127	 -1.65075	 66.11818	710.31000	 34.60	
 13.600	180.000	 60.61923	 -1.46591	 52.91450	 22.75520	 22.58204	 -2.18675	 66.13389	710.22998	 34.60	
 13.608	-172.853	 60.67188	 -1.20397	 52.60719	 19.40417	 26.06955	 -2.14429	 66.14362	710.19000	 34.60	
 13.611	-165.583	 60.77031	 -0.52123	 51.80054	 16.10490	 29.71388	 -2.01812	 66.16836	710.17999	 34.60	
 13.601	-158.353	 60.81586	  0.46762	 50.47358	 12.96598	 33.54549	 -1.84641	 66.15969	710.23999	 34.60	
 13.609	-151.210	 60.86565	  1.72180	 48.70358	 10.20197	 36.90271	 -1.73038	 66.14006	710.21997	 34.60	
 13.611	-143.999	 60.90474	  3.36750	 46.45436	  7.58998	 40.14080	 -1.67286	 66.13744	710.17999	 34.60	
 13.601	-136.825	 60.89469	  5.34799	 43.79040	  5.39166	 42.92225	 -1.59328	 66.13080	710.21002	 34.60	
 13.596	-129.640	 60.88202	  7.81422	 41.00434	  3.26917	 45.50021	 -1.53336	 66.12154	710.34003	 34.60	
