FileType=PCF
NHL=14
Date=03/18/19	13:14:01
Facility=APL
Serial=16071-8
Customer=NASA
NP=6
Mach=0.080000
Calibration=1:1
CalPts=490
TstPts=95
PortNumbering=AP Standard
Units=Torr C m/s kg/m^3 deg mm 
Theta[deg]	Phi[deg]	P1[Torr]	P2[Torr]	P3[Torr]	P4[Torr]	P5[Torr]	P6[Torr]	Pt[Torr]	Ps[Abs,Torr]	Ts[C]	
  0.000	  0.000	  3.18162	  1.42831	  1.36326	  1.39644	  1.36087	  0.08675	  3.18060	710.15002	 23.00	
  1.691	128.401	  3.18000	  1.32556	  1.44013	  1.49190	  1.24057	  0.07592	  3.18126	710.02002	 23.00	
  1.692	 77.194	  3.18205	  1.43744	  1.32976	  1.52098	  1.21524	  0.08244	  3.18312	710.04999	 23.00	
  1.699	 26.182	  3.17917	  1.54572	  1.22883	  1.44400	  1.29010	  0.08549	  3.17986	710.15997	 23.00	
  1.699	-26.182	  3.18243	  1.54110	  1.22983	  1.32655	  1.41165	  0.07905	  3.18358	710.19000	 23.00	
  1.692	-77.194	  3.17972	  1.45692	  1.31423	  1.25187	  1.48755	  0.07755	  3.18145	710.23999	 23.00	
  1.691	-128.401	  3.17971	  1.33128	  1.44193	  1.27558	  1.46215	  0.07277	  3.18124	710.25000	 23.00	
  1.700	180.000	  3.18035	  1.27499	  1.49805	  1.36973	  1.36144	  0.07361	  3.18213	710.13000	 23.00	
  3.400	180.000	  3.17507	  1.09426	  1.66513	  1.34679	  1.34197	  0.05627	  3.18023	710.20001	 23.00	
  3.388	-152.325	  3.17756	  1.13347	  1.62292	  1.21047	  1.49037	  0.05477	  3.18093	710.12000	 23.00	
  3.397	-124.529	  3.18065	  1.23220	  1.51086	  1.11520	  1.60276	  0.05397	  3.18392	710.08002	 23.00	
  3.399	-96.763	  3.17878	  1.37055	  1.35637	  1.07416	  1.65192	  0.05567	  3.18234	710.10999	 23.00	
  3.394	-69.283	  3.17640	  1.51241	  1.21508	  1.08835	  1.63390	  0.06061	  3.18129	710.12000	 22.90	
  3.400	-41.398	  3.17692	  1.63835	  1.10187	  1.16856	  1.53282	  0.06822	  3.18104	710.08002	 22.90	
  3.401	-14.021	  3.17665	  1.71152	  1.04395	  1.28812	  1.39761	  0.07589	  3.18019	709.96002	 22.90	
  3.401	 14.021	  3.17368	  1.70584	  1.04267	  1.43982	  1.24322	  0.07876	  3.17986	710.12000	 22.90	
  3.400	 41.398	  3.17164	  1.62559	  1.10621	  1.57743	  1.11895	  0.08124	  3.17833	710.04999	 22.90	
  3.394	 69.283	  3.17350	  1.48937	  1.23158	  1.67118	  1.04637	  0.07935	  3.17899	709.98999	 22.90	
  3.399	 96.763	  3.17150	  1.33901	  1.37747	  1.68842	  1.03074	  0.07289	  3.17905	710.07001	 22.90	
  3.397	124.529	  3.17129	  1.20653	  1.52182	  1.62479	  1.08212	  0.06574	  3.17856	710.15997	 22.90	
  3.388	152.325	  3.17235	  1.11975	  1.62833	  1.49827	  1.19559	  0.05923	  3.17848	710.13000	 22.90	
  5.099	161.165	  3.16040	  0.92581	  1.80474	  1.48375	  1.16335	  0.04077	  3.18087	710.15002	 22.90	
  5.109	142.013	  3.15614	  0.98665	  1.72415	  1.63717	  1.02273	  0.04506	  3.17780	710.04999	 22.90	
  5.095	123.033	  3.15911	  1.09502	  1.59788	  1.75958	  0.92231	  0.05080	  3.17953	710.08002	 22.90	
  5.105	104.191	  3.15608	  1.23195	  1.43932	  1.83300	  0.85987	  0.05605	  3.17963	710.09998	 22.90	
  5.093	 85.207	  3.15624	  1.39017	  1.27703	  1.85339	  0.84506	  0.06228	  3.18069	710.09003	 22.90	
  5.104	 66.290	  3.15480	  1.54802	  1.12484	  1.81343	  0.87559	  0.06679	  3.17819	710.17999	 22.90	
  5.094	 47.331	  3.15578	  1.69548	  0.99531	  1.72177	  0.94692	  0.06961	  3.18128	710.14001	 22.90	
  5.089	 28.397	  3.15532	  1.80655	  0.90632	  1.58788	  1.06002	  0.07146	  3.17851	710.19000	 22.90	
  5.096	  9.576	  3.15658	  1.87030	  0.85820	  1.42955	  1.20646	  0.06985	  3.17740	710.20001	 22.90	
  5.096	 -9.576	  3.15767	  1.87648	  0.85605	  1.26822	  1.36866	  0.06509	  3.17839	710.13000	 22.90	
  5.089	-28.397	  3.16019	  1.82426	  0.89690	  1.12392	  1.52691	  0.05723	  3.18072	710.09003	 22.90	
  5.094	-47.331	  3.15891	  1.71942	  0.97849	  1.00470	  1.66482	  0.04964	  3.17677	710.17999	 22.90	
  5.104	-66.290	  3.16394	  1.58299	  1.10400	  0.92391	  1.77265	  0.04250	  3.18192	710.16998	 22.90	
  5.093	-85.207	  3.16439	  1.42444	  1.25325	  0.88520	  1.82135	  0.03647	  3.18058	710.06000	 22.90	
  5.105	-104.191	  3.16289	  1.26394	  1.41451	  0.88819	  1.81343	  0.03310	  3.17814	710.20001	 22.90	
  5.095	-123.033	  3.16017	  1.12253	  1.56960	  0.94222	  1.74434	  0.03271	  3.17618	710.19000	 22.90	
  5.109	-142.013	  3.16220	  1.00678	  1.70654	  1.03228	  1.63462	  0.03217	  3.17795	710.13000	 22.80	
  5.099	-161.165	  3.16398	  0.93739	  1.79671	  1.16794	  1.48503	  0.03625	  3.17970	710.10999	 22.80	
  5.100	180.000	  3.16039	  0.90659	  1.83073	  1.31903	  1.32237	  0.03576	  3.17874	710.10999	 22.80	
  6.800	180.000	  3.13184	  0.71434	  1.98822	  1.28182	  1.29388	  0.01102	  3.17581	710.19000	 22.80	
  6.796	-166.229	  3.13674	  0.73709	  1.96532	  1.13069	  1.45673	  0.01038	  3.17953	710.07001	 22.80	
  6.808	-152.311	  3.13729	  0.78873	  1.89493	  0.98669	  1.61388	  0.00913	  3.17937	710.20001	 22.80	
  6.795	-138.383	  3.13929	  0.87839	  1.78892	  0.86957	  1.75711	  0.00750	  3.18071	710.21002	 22.80	
  6.792	-124.591	  3.14008	  0.99008	  1.65599	  0.78088	  1.86871	  0.00676	  3.18106	710.16998	 22.80	
  6.787	-110.754	  3.14051	  1.12539	  1.50172	  0.72232	  1.94534	  0.00851	  3.17971	710.13000	 22.80	
  6.800	-96.985	  3.13792	  1.27700	  1.33788	  0.69357	  1.98057	  0.01032	  3.17893	710.16998	 22.80	
  6.800	-83.015	  3.13975	  1.43893	  1.17805	  0.69944	  1.97738	  0.01415	  3.17960	710.21002	 22.80	
  6.787	-69.246	  3.13743	  1.59635	  1.02967	  0.73602	  1.92677	  0.01958	  3.17989	710.15002	 22.80	
  6.792	-55.409	  3.13403	  1.74574	  0.89585	  0.80026	  1.83910	  0.02554	  3.17789	710.29999	 22.80	
  6.795	-41.617	  3.13506	  1.87060	  0.79310	  0.89801	  1.71920	  0.03048	  3.18004	710.13000	 22.80	
  6.808	-27.689	  3.13089	  1.96680	  0.71567	  1.02209	  1.56908	  0.03781	  3.17762	710.15997	 22.80	
  6.796	-13.771	  3.12809	  2.02163	  0.67342	  1.16621	  1.40843	  0.04527	  3.17521	710.13000	 22.80	
  6.800	  0.000	  3.13099	  2.03712	  0.66403	  1.32131	  1.25035	  0.05118	  3.17966	710.15997	 22.80	
  6.796	 13.771	  3.12813	  2.00929	  0.68236	  1.48381	  1.09247	  0.05474	  3.18002	710.15997	 22.80	
  6.808	 27.689	  3.12517	  1.94040	  0.73182	  1.64164	  0.94967	  0.05478	  3.17699	710.15997	 22.80	
  6.795	 41.617	  3.12696	  1.83839	  0.81265	  1.77944	  0.83578	  0.05460	  3.17870	710.15002	 22.80	
  6.792	 55.409	  3.12712	  1.70596	  0.92486	  1.89373	  0.74754	  0.05166	  3.17870	710.15002	 22.80	
  6.787	 69.246	  3.12601	  1.55189	  1.05962	  1.97018	  0.68881	  0.04895	  3.17937	710.09003	 22.80	
  6.800	 83.015	  3.12595	  1.39266	  1.21038	  2.01249	  0.65456	  0.04205	  3.17816	710.07001	 22.80	
  6.800	 96.985	  3.12724	  1.23452	  1.37265	  2.00645	  0.66213	  0.03686	  3.17939	710.13000	 22.80	
  6.787	110.754	  3.12855	  1.08502	  1.53486	  1.95793	  0.69814	  0.03192	  3.18064	710.12000	 22.80	
  6.792	124.591	  3.13057	  0.95361	  1.68797	  1.87017	  0.76872	  0.02687	  3.17935	710.21002	 22.80	
  6.795	138.383	  3.13051	  0.84772	  1.81463	  1.75171	  0.86255	  0.02066	  3.17849	710.13000	 22.80	
  6.808	152.311	  3.12868	  0.76757	  1.91526	  1.60925	  0.98350	  0.01892	  3.17744	710.08002	 22.70	
  6.796	166.229	  3.13201	  0.72541	  1.97323	  1.44430	  1.13487	  0.01421	  3.17711	710.15002	 22.80	
  8.491	168.704	  3.09400	  0.53067	  2.13131	  1.40764	  1.09829	 -0.01332	  3.17826	710.00000	 22.70	
  8.502	157.493	  3.09245	  0.56546	  2.08156	  1.57655	  0.94034	 -0.01030	  3.17896	710.07001	 22.70	
  8.494	146.194	  3.09197	  0.62526	  1.99770	  1.73241	  0.80330	 -0.01041	  3.17794	710.01001	 22.70	
  8.495	135.039	  3.09114	  0.71326	  1.88584	  1.87437	  0.68829	 -0.00694	  3.17871	710.10999	 22.70	
  8.487	123.723	  3.08700	  0.82469	  1.74650	  1.99196	  0.59445	 -0.00006	  3.17599	710.08002	 22.70	
  8.492	112.575	  3.08899	  0.95597	  1.59492	  2.08496	  0.52623	  0.00702	  3.18002	710.07001	 22.70	
  8.510	101.220	  3.08870	  1.10744	  1.42626	  2.14536	  0.48162	  0.00797	  3.18000	710.04999	 22.70	
  8.500	 90.000	  3.08564	  1.26317	  1.25845	  2.16575	  0.46309	  0.01073	  3.17779	710.09003	 22.70	
  8.510	 78.780	  3.08278	  1.42607	  1.09540	  2.15295	  0.47034	  0.02004	  3.17526	710.16998	 22.70	
  8.492	 67.425	  3.08502	  1.59551	  0.94234	  2.10439	  0.50792	  0.02513	  3.17891	710.19000	 22.70	
  8.487	 56.277	  3.08363	  1.74793	  0.81181	  2.01770	  0.57364	  0.02765	  3.17579	710.15002	 22.70	
  8.495	 44.961	  3.08376	  1.89145	  0.69134	  1.90629	  0.65857	  0.02873	  3.17667	710.10999	 22.70	
  8.494	 33.806	  3.08834	  2.01078	  0.60023	  1.77162	  0.76910	  0.03415	  3.18071	710.17999	 22.70	
  8.502	 22.507	  3.08619	  2.10425	  0.52868	  1.61853	  0.89495	  0.03624	  3.17771	710.12000	 22.70	
  8.491	 11.296	  3.08811	  2.16455	  0.48632	  1.45563	  1.04233	  0.03173	  3.17906	710.20001	 22.70	
  8.500	  0.000	  3.08817	  2.19231	  0.46327	  1.28478	  1.20384	  0.02535	  3.17949	710.15997	 22.70	
  8.491	-11.296	  3.08930	  2.17870	  0.47581	  1.12765	  1.36837	  0.02257	  3.17870	710.07001	 22.70	
  8.502	-22.507	  3.09072	  2.13112	  0.50969	  0.97606	  1.53293	  0.01651	  3.17903	710.10999	 22.70	
  8.494	-33.806	  3.09448	  2.04901	  0.57334	  0.83841	  1.69679	  0.01077	  3.17876	710.26001	 22.70	
  8.495	-44.961	  3.09628	  1.93943	  0.66258	  0.72493	  1.84010	  0.00455	  3.17796	710.17999	 22.70	
  8.487	-56.277	  3.09873	  1.80431	  0.77405	  0.63320	  1.96103	  0.00178	  3.17864	710.19000	 22.70	
  8.492	-67.425	  3.09807	  1.65138	  0.90245	  0.56168	  2.05181	 -0.00545	  3.17652	710.19000	 22.70	
  8.510	-78.780	  3.10192	  1.48985	  1.05365	  0.51621	  2.11847	 -0.00917	  3.18163	710.23999	 22.70	
  8.500	-90.000	  3.10282	  1.32421	  1.21235	  0.50010	  2.14011	 -0.01363	  3.18053	710.16998	 22.70	
  8.510	-101.220	  3.09945	  1.16173	  1.37574	  0.50584	  2.12743	 -0.01636	  3.17722	710.20001	 22.70	
  8.492	-112.575	  3.10297	  1.00896	  1.54820	  0.54499	  2.07881	 -0.01701	  3.17809	710.28003	 22.70	
  8.487	-123.723	  3.10139	  0.87356	  1.70400	  0.60736	  1.99664	 -0.01832	  3.17629	710.17999	 22.70	
  8.495	-135.039	  3.10335	  0.75612	  1.84786	  0.69310	  1.88550	 -0.01723	  3.17821	710.23999	 22.70	
  8.494	-146.194	  3.10156	  0.65871	  1.96769	  0.79996	  1.75352	 -0.01575	  3.17754	710.10999	 22.70	
  8.502	-157.493	  3.10040	  0.58602	  2.06145	  0.93410	  1.59387	 -0.01442	  3.17802	710.22998	 22.70	
  8.491	-168.704	  3.09698	  0.54068	  2.11767	  1.08020	  1.42956	 -0.01637	  3.17530	710.27002	 22.70	
  8.500	180.000	  3.09533	  0.52185	  2.14376	  1.23565	  1.26564	 -0.01891	  3.17724	710.21997	 22.70	
 10.200	180.000	  3.04679	  0.33760	  2.28338	  1.18933	  1.22687	 -0.04354	  3.17534	710.09998	 22.70	
 10.191	-170.497	  3.05126	  0.35022	  2.26529	  1.03006	  1.39268	 -0.04754	  3.17949	710.15002	 22.60	
 10.210	-161.034	  3.04974	  0.38680	  2.21414	  0.87464	  1.56334	 -0.04303	  3.17746	710.21997	 22.60	
 10.194	-151.526	  3.05485	  0.45100	  2.13244	  0.73865	  1.72882	 -0.04002	  3.18048	710.23999	 22.70	
 10.190	-142.105	  3.05504	  0.53281	  2.02476	  0.61997	  1.87388	 -0.04052	  3.17922	710.21002	 22.60	
 10.215	-132.646	  3.05210	  0.63013	  1.89567	  0.51069	  2.00976	 -0.04186	  3.17746	710.28003	 22.60	
 10.203	-123.092	  3.05488	  0.75260	  1.74735	  0.42786	  2.12232	 -0.04119	  3.18087	710.16998	 22.60	
 10.192	-113.678	  3.05293	  0.88966	  1.58545	  0.36968	  2.20313	 -0.03961	  3.17764	710.23999	 22.60	
 10.208	-104.249	  3.04999	  1.03740	  1.41694	  0.32572	  2.25976	 -0.04012	  3.17740	710.21997	 22.60	
 10.210	-94.801	  3.04794	  1.19917	  1.24368	  0.30614	  2.28531	 -0.03995	  3.17729	710.14001	 22.60	
 10.210	-85.199	  3.04729	  1.36773	  1.07517	  0.31254	  2.27665	 -0.03632	  3.17719	710.13000	 22.60	
 10.208	-75.751	  3.04565	  1.53145	  0.91922	  0.33499	  2.23974	 -0.03341	  3.17649	710.13000	 22.60	
 10.192	-66.322	  3.04701	  1.69950	  0.77097	  0.38497	  2.17217	 -0.03075	  3.17854	710.15997	 22.60	
 10.203	-56.908	  3.04454	  1.85158	  0.64330	  0.45268	  2.07830	 -0.02875	  3.17912	710.22998	 22.60	
 10.215	-47.354	  3.04237	  1.99627	  0.52789	  0.54709	  1.95232	 -0.02428	  3.17769	710.12000	 22.60	
 10.190	-37.895	  3.04311	  2.11577	  0.43648	  0.65737	  1.81131	 -0.02016	  3.17915	710.14001	 22.60	
 10.194	-28.474	  3.04106	  2.21445	  0.36175	  0.78073	  1.65764	 -0.01476	  3.18129	710.09003	 22.60	
 10.210	-18.966	  3.03708	  2.28321	  0.30951	  0.92603	  1.48742	 -0.00737	  3.17819	710.15997	 22.60	
 10.191	 -9.503	  3.03505	  2.32139	  0.28353	  1.08354	  1.31632	 -0.00232	  3.17542	710.09998	 22.60	
 10.200	  0.000	  3.03642	  2.33306	  0.27798	  1.24662	  1.15271	  0.00102	  3.17980	710.16998	 22.60	
 10.191	  9.503	  3.03293	  2.30910	  0.28967	  1.41734	  0.98290	  0.00610	  3.17692	710.09998	 22.60	
 10.210	 18.966	  3.03300	  2.25827	  0.32420	  1.58601	  0.83006	  0.00918	  3.17931	710.02002	 22.60	
 10.194	 28.474	  3.03222	  2.17541	  0.38396	  1.74610	  0.69462	  0.01047	  3.17788	710.07001	 22.60	
 10.190	 37.895	  3.03181	  2.06721	  0.46635	  1.89463	  0.57727	  0.00784	  3.17672	710.12000	 22.60	
 10.215	 47.354	  3.02882	  1.93606	  0.56368	  2.02854	  0.47175	  0.00205	  3.17475	710.02002	 22.60	
 10.203	 56.908	  3.02971	  1.78903	  0.68334	  2.13993	  0.39008	 -0.00209	  3.17597	710.03003	 22.60	
 10.192	 66.322	  3.03437	  1.63337	  0.82382	  2.22472	  0.33677	 -0.00226	  3.17834	710.08002	 22.60	
 10.208	 75.751	  3.03375	  1.46594	  0.97249	  2.28103	  0.29562	 -0.00612	  3.17740	710.09998	 22.60	
 10.210	 85.199	  3.03384	  1.29743	  1.13284	  2.30600	  0.27787	 -0.01264	  3.17565	709.97998	 22.60	
 10.210	 94.801	  3.03389	  1.13002	  1.30436	  2.30208	  0.28039	 -0.01935	  3.17616	710.00000	 22.60	
 10.208	104.249	  3.03567	  0.97258	  1.47239	  2.26594	  0.30525	 -0.02157	  3.17738	710.08002	 22.60	
 10.192	113.678	  3.03852	  0.82837	  1.63975	  2.19976	  0.35486	 -0.02289	  3.17659	710.08002	 22.60	
 10.203	123.092	  3.03897	  0.70209	  1.79533	  2.10843	  0.42369	 -0.02732	  3.17729	710.14001	 22.60	
 10.215	132.646	  3.04241	  0.58516	  1.94199	  1.99089	  0.51349	 -0.03457	  3.17890	710.10999	 22.60	
 10.190	142.105	  3.04089	  0.49349	  2.06383	  1.84606	  0.62821	 -0.03793	  3.17589	710.02002	 22.60	
 10.194	151.526	  3.04298	  0.41967	  2.16259	  1.69209	  0.75707	 -0.03765	  3.17769	710.06000	 22.60	
 10.210	161.034	  3.04428	  0.36743	  2.23672	  1.52954	  0.90092	 -0.03825	  3.17672	710.08002	 22.60	
 10.191	170.497	  3.04798	  0.34319	  2.27654	  1.36047	  1.06033	 -0.04097	  3.17788	710.15002	 22.60	
 11.899	171.783	  2.98716	  0.15445	  2.41172	  1.30279	  1.01486	 -0.06846	  3.17591	710.14001	 22.60	
 11.890	163.610	  2.98413	  0.17721	  2.37347	  1.47345	  0.85092	 -0.06763	  3.17645	710.04999	 22.60	
 11.889	155.445	  2.98372	  0.22120	  2.31217	  1.63992	  0.70464	 -0.06795	  3.17597	710.19000	 22.60	
 11.909	147.299	  2.97922	  0.27887	  2.22500	  1.80257	  0.56611	 -0.06855	  3.17525	710.10999	 22.60	
 11.902	139.148	  2.97810	  0.35487	  2.11577	  1.95415	  0.44259	 -0.06935	  3.17680	710.15002	 22.60	
 11.894	130.867	  2.97775	  0.45513	  1.98229	  2.09175	  0.33952	 -0.06700	  3.17609	710.06000	 22.60	
 11.897	122.732	  2.97778	  0.56821	  1.83693	  2.20571	  0.25678	 -0.06093	  3.17787	710.07001	 22.60	
 11.903	114.597	  2.97603	  0.69528	  1.67940	  2.30348	  0.18567	 -0.05656	  3.17728	710.10999	 22.60	
 11.893	106.346	  2.97739	  0.83796	  1.51266	  2.37685	  0.13660	 -0.05530	  3.17872	710.04999	 22.60	
 11.892	 98.155	  2.97400	  0.99297	  1.33676	  2.42032	  0.10488	 -0.05159	  3.17584	710.03003	 22.60	
 11.900	 90.000	  2.96937	  1.15194	  1.16691	  2.44047	  0.08788	 -0.05199	  3.17370	710.03998	 22.60	
 11.892	 81.845	  2.97018	  1.32077	  1.00252	  2.43088	  0.09574	 -0.04698	  3.17526	709.96002	 22.60	
 11.893	 73.654	  2.96991	  1.49291	  0.84012	  2.39786	  0.11527	 -0.04007	  3.17808	709.98999	 22.60	
 11.903	 65.403	  2.96836	  1.65846	  0.69342	  2.33560	  0.15537	 -0.03538	  3.17634	709.96002	 22.60	
 11.897	 57.268	  2.97034	  1.82041	  0.56235	  2.24777	  0.21914	 -0.03411	  3.17767	710.06000	 22.50	
 11.894	 49.133	  2.97001	  1.96725	  0.44638	  2.14065	  0.29716	 -0.02891	  3.17739	709.92999	 22.50	
 11.902	 40.852	  2.96686	  2.10750	  0.33520	  2.01084	  0.38638	 -0.02568	  3.17765	710.10999	 22.50	
 11.909	 32.701	  2.96666	  2.22819	  0.24593	  1.86246	  0.50076	 -0.01925	  3.17708	709.96002	 22.50	
 11.889	 24.555	  2.96934	  2.32165	  0.18369	  1.70365	  0.63127	 -0.01501	  3.17685	710.03998	 22.50	
 11.890	 16.390	  2.97053	  2.39638	  0.13252	  1.54083	  0.76914	 -0.02007	  3.17802	710.02002	 22.50	
 11.899	  8.217	  2.96926	  2.43806	  0.10440	  1.37067	  0.92171	 -0.02314	  3.17538	710.09003	 22.50	
 11.900	  0.000	  2.96930	  2.46002	  0.08791	  1.19593	  1.08794	 -0.02480	  3.17578	709.96997	 22.50	
 11.899	 -8.217	  2.96891	  2.45150	  0.09472	  1.03244	  1.25544	 -0.02766	  3.17256	710.00000	 22.50	
 11.890	-16.390	  2.97184	  2.41780	  0.12021	  0.87445	  1.43173	 -0.03233	  3.17591	710.03003	 22.50	
 11.889	-24.555	  2.97397	  2.35696	  0.16111	  0.72449	  1.60187	 -0.03795	  3.17546	710.01001	 22.50	
 11.909	-32.701	  2.97544	  2.27452	  0.21931	  0.59113	  1.76310	 -0.04343	  3.17598	710.04999	 22.50	
 11.902	-40.852	  2.97784	  2.16782	  0.29953	  0.47216	  1.91898	 -0.05016	  3.17686	709.96997	 22.50	
 11.894	-49.133	  2.97907	  2.03542	  0.39801	  0.36816	  2.05940	 -0.05032	  3.17417	710.00000	 22.50	
 11.897	-57.268	  2.97953	  1.89129	  0.51128	  0.28254	  2.17799	 -0.05049	  3.17482	710.12000	 22.50	
 11.903	-65.403	  2.98183	  1.73676	  0.63833	  0.21530	  2.27498	 -0.05052	  3.17350	710.09998	 22.50	
 11.893	-73.654	  2.98436	  1.57018	  0.78513	  0.16667	  2.34982	 -0.05384	  3.17610	710.00000	 22.50	
 11.892	-81.845	  2.98693	  1.40055	  0.94250	  0.13491	  2.39937	 -0.05389	  3.17792	710.03003	 22.50	
 11.900	-90.000	  2.98907	  1.23509	  1.10422	  0.12332	  2.42044	 -0.05292	  3.17747	710.09003	 22.50	
 11.892	-98.155	  2.98851	  1.06997	  1.27120	  0.13019	  2.40928	 -0.05521	  3.17540	710.03003	 22.50	
 11.893	-106.346	  2.98915	  0.91120	  1.44521	  0.15187	  2.37656	 -0.05692	  3.17593	710.06000	 22.50	
 11.903	-114.597	  2.98975	  0.76032	  1.61742	  0.19194	  2.31872	 -0.05857	  3.17706	710.12000	 22.50	
 11.897	-122.732	  2.98693	  0.62587	  1.77610	  0.25008	  2.23244	 -0.06170	  3.17488	710.06000	 22.50	
 11.894	-130.867	  2.99106	  0.50645	  1.92949	  0.33083	  2.12142	 -0.06250	  3.17732	710.04999	 22.50	
 11.902	-139.148	  2.99186	  0.40078	  2.07076	  0.43082	  1.99145	 -0.06132	  3.17847	710.10999	 22.50	
 11.909	-147.299	  2.99050	  0.31395	  2.18723	  0.54394	  1.84351	 -0.06059	  3.17789	709.98999	 22.50	
 11.889	-155.445	  2.98982	  0.24611	  2.28202	  0.67108	  1.68852	 -0.06622	  3.17529	710.06000	 22.50	
 11.890	-163.610	  2.98961	  0.19451	  2.35492	  0.81528	  1.52061	 -0.06849	  3.17638	710.10999	 22.50	
 11.899	-171.783	  2.98983	  0.16187	  2.40281	  0.96843	  1.35059	 -0.07436	  3.17823	710.03998	 22.50	
 11.900	180.000	  2.98742	  0.14788	  2.42044	  1.12988	  1.18218	 -0.07635	  3.17757	710.08002	 22.50	
 13.600	180.000	  2.91619	 -0.03478	  2.54544	  1.06675	  1.12663	 -0.09763	  3.17564	710.04999	 22.50	
 13.608	-172.853	  2.91649	 -0.02732	  2.53081	  0.90479	  1.29202	 -0.09743	  3.17708	710.06000	 22.50	
 13.611	-165.583	  2.91663	  0.00357	  2.48680	  0.74669	  1.46793	 -0.09196	  3.17513	710.09003	 22.50	
 13.601	-158.353	  2.91852	  0.04747	  2.42009	  0.60105	  1.63812	 -0.08643	  3.17560	710.09003	 22.50	
 13.609	-151.210	  2.91747	  0.10730	  2.33187	  0.47168	  1.79745	 -0.08061	  3.17440	710.10999	 22.50	
 13.611	-143.999	  2.91972	  0.18248	  2.22593	  0.35092	  1.95574	 -0.07987	  3.17648	710.13000	 22.50	
 13.601	-136.825	  2.91734	  0.27273	  2.09685	  0.24468	  2.09504	 -0.07602	  3.17387	710.02002	 22.50	
 13.596	-129.640	  2.91760	  0.37926	  1.95670	  0.15833	  2.22110	 -0.07409	  3.17429	710.03003	 22.50	
