FileType=PCF
NHL=14
Date=05/29/19	14:57:30
Facility=APL
Serial=16071-8
Customer=NASA
NP=6
Mach=0.550000
Calibration=1:1
CalPts=490
TstPts=95
PortNumbering=AP Standard
Units=Torr C m/s kg/m^3 deg mm 
Theta[deg]	Phi[deg]	P1[Torr]	P2[Torr]	P3[Torr]	P4[Torr]	P5[Torr]	P6[Torr]	Pt[Torr]	Ps[Abs,Torr]	Ts[C]	
  0.000	  0.000	160.25809	 76.05371	 74.84584	 72.51651	 74.47898	  6.63465	160.13940	700.59998	 43.20	
  1.691	128.401	160.32352	 71.03152	 79.91792	 78.57568	 68.42260	  6.48495	160.19566	700.67999	 43.30	
  1.692	 77.194	160.31075	 77.42912	 73.21690	 80.48469	 66.63211	  6.53275	160.21385	700.72998	 43.30	
  1.699	 26.182	160.25262	 82.85085	 67.79729	 76.46514	 70.29610	  6.53114	160.15485	700.63000	 43.30	
  1.699	-26.182	160.30226	 83.14833	 67.54065	 69.33106	 77.38818	  6.52147	160.20068	700.62000	 43.30	
  1.692	-77.194	160.35176	 77.87058	 72.55266	 64.93351	 81.99560	  6.48551	160.22461	700.65997	 43.30	
  1.691	-128.401	160.38533	 71.41877	 79.34150	 66.10836	 80.76537	  6.44732	160.26999	700.75000	 43.30	
  1.700	180.000	160.40375	 68.22466	 82.79899	 72.13923	 74.67533	  6.45314	160.29652	700.65997	 43.40	
  3.400	180.000	160.25044	 60.21928	 90.40350	 71.06825	 74.60065	  5.92650	160.34396	700.59003	 43.40	
  3.388	-152.325	160.24556	 62.18476	 88.07489	 64.00681	 81.96149	  5.97920	160.35587	700.70001	 43.40	
  3.397	-124.529	160.32051	 67.13862	 82.69822	 58.96527	 87.61823	  6.03524	160.41130	700.60999	 43.40	
  3.399	-96.763	160.29263	 74.15957	 75.22376	 56.83180	 89.93350	  6.06373	160.40721	700.65002	 43.50	
  3.394	-69.283	160.28563	 81.57130	 68.01958	 58.03947	 88.61040	  6.12411	160.42996	700.70001	 43.50	
  3.400	-41.398	160.31538	 88.04628	 62.25182	 62.38616	 83.75902	  6.17449	160.45790	700.71002	 43.50	
  3.401	-14.021	160.34367	 91.19104	 59.28502	 69.17236	 76.70263	  6.20929	160.49915	700.73999	 43.60	
  3.401	 14.021	160.38844	 91.05926	 59.61735	 77.07300	 68.93509	  6.22111	160.51881	700.71997	 43.60	
  3.400	 41.398	160.39070	 87.30640	 63.24693	 83.73504	 62.85986	  6.24447	160.53375	700.87000	 43.60	
  3.394	 69.283	160.37448	 80.63712	 69.37009	 87.76275	 59.18810	  6.19924	160.49284	700.79999	 43.70	
  3.399	 96.763	160.46909	 73.33663	 76.94660	 88.39222	 58.64327	  6.15492	160.57703	700.85999	 43.80	
  3.397	124.529	160.47643	 66.73522	 83.98218	 85.12798	 61.56120	  6.07536	160.58292	700.84998	 43.80	
  3.388	152.325	160.53677	 61.99953	 88.91270	 78.99138	 67.37467	  6.00131	160.60178	700.73999	 43.80	
  5.099	161.165	159.87682	 53.21944	 96.88019	 78.08021	 66.55473	  5.29386	160.57753	700.78003	 43.80	
  5.109	142.013	159.86258	 56.50339	 93.23429	 85.36317	 59.76063	  5.35659	160.55852	700.85999	 43.80	
  5.095	123.033	159.93753	 61.98513	 87.36161	 91.15839	 54.55709	  5.46337	160.62762	700.76001	 43.80	
  5.105	104.191	159.93805	 68.68745	 80.41564	 94.98547	 51.07593	  5.55558	160.66095	700.82001	 43.90	
  5.093	 85.207	159.89633	 76.25552	 72.30781	 95.95210	 50.13664	  5.61352	160.62154	700.71002	 43.90	
  5.104	 66.290	159.94116	 83.97514	 64.92970	 94.34090	 51.58984	  5.66583	160.69334	700.59998	 43.90	
  5.094	 47.331	159.87837	 90.53889	 58.79976	 90.15130	 55.41725	  5.67363	160.64847	700.62000	 43.90	
  5.089	 28.397	159.86693	 95.59603	 54.05101	 84.19310	 60.94716	  5.71499	160.69083	700.66998	 43.90	
  5.096	  9.576	159.85515	 98.52360	 51.28820	 76.87004	 67.73729	  5.68960	160.70197	700.67999	 43.90	
  5.096	 -9.576	159.89833	 98.80583	 50.91625	 68.60690	 75.71700	  5.70109	160.75510	700.76001	 44.00	
  5.089	-28.397	159.85010	 96.31528	 53.02402	 61.52316	 83.30722	  5.63869	160.70589	700.65997	 44.00	
  5.094	-47.331	159.85837	 91.64407	 57.28018	 55.48694	 90.00089	  5.63787	160.71222	700.70001	 44.00	
  5.104	-66.290	159.87068	 85.10582	 63.27613	 51.10243	 94.93900	  5.59763	160.69662	700.71002	 44.00	
  5.093	-85.207	159.89325	 77.44018	 70.24136	 48.94188	 97.40720	  5.55575	160.70256	700.64001	 44.10	
  5.105	-104.191	159.92194	 69.84816	 78.25076	 49.15277	 97.12285	  5.46088	160.70938	700.71997	 44.10	
  5.095	-123.033	160.02078	 63.00769	 85.70480	 51.86045	 94.05200	  5.39736	160.79166	700.69000	 44.20	
  5.109	-142.013	160.00479	 57.41215	 91.89165	 56.48814	 88.88398	  5.37948	160.75272	700.73999	 44.30	
  5.099	-161.165	160.01340	 53.79553	 96.21110	 62.83547	 82.00207	  5.33323	160.75493	700.71002	 44.40	
  5.100	180.000	160.03845	 52.26040	 97.93410	 70.00159	 74.40447	  5.22582	160.75476	700.75000	 44.50	
  6.800	180.000	158.96701	 44.36094	104.81258	 68.25603	 73.66455	  4.65522	160.77800	700.71997	 44.60	
  6.796	-166.229	158.96777	 45.37615	103.52512	 61.38681	 81.22549	  4.76123	160.82498	700.69000	 44.60	
  6.808	-152.311	158.92917	 48.03429	100.33678	 54.88921	 88.27712	  4.86047	160.78864	700.71997	 44.50	
  6.795	-138.383	158.90723	 52.22440	 95.28513	 49.36298	 94.45585	  4.87362	160.79518	700.66998	 44.50	
  6.792	-124.591	158.90884	 57.56457	 89.15271	 45.13253	 99.61430	  4.89298	160.85408	700.57001	 44.50	
  6.787	-110.754	158.83464	 63.98785	 82.21298	 42.16458	102.85075	  4.94964	160.80191	700.67999	 44.50	
  6.800	-96.985	158.80643	 71.03318	 74.32284	 40.86984	104.46762	  5.02252	160.82138	700.48999	 44.40	
  6.800	-83.015	158.78459	 78.45737	 66.79754	 41.13686	104.21461	  5.08137	160.83202	700.54999	 44.40	
  6.787	-69.246	158.78575	 85.86474	 60.37751	 43.14619	101.97923	  5.13962	160.86108	700.62000	 44.30	
  6.792	-55.409	158.83372	 92.52418	 54.27914	 46.81659	 97.88743	  5.20701	160.90102	700.65002	 44.30	
  6.795	-41.617	158.75990	 98.35179	 49.10020	 51.66485	 91.95274	  5.20565	160.85361	700.67999	 44.20	
  6.808	-27.689	158.79951	102.82616	 45.21097	 57.63288	 85.31689	  5.24165	160.89377	700.63000	 44.20	
  6.796	-13.771	158.84171	105.29565	 43.02939	 64.62463	 77.84538	  5.24858	160.88524	700.48999	 44.20	
  6.800	  0.000	158.84218	105.98820	 42.44648	 72.03670	 70.15177	  5.20660	160.88472	700.56000	 44.20	
  6.796	 13.771	158.85487	104.74535	 43.49499	 79.86178	 62.92891	  5.18358	160.86488	700.64001	 44.20	
  6.808	 27.689	158.92479	101.74142	 46.47133	 86.98357	 56.29944	  5.12560	160.92786	700.60999	 44.30	
  6.795	 41.617	158.95453	 96.95258	 50.93780	 93.11546	 50.56142	  5.05420	160.93898	700.64001	 44.30	
  6.792	 55.409	159.01021	 90.97610	 56.47158	 98.30629	 46.03372	  5.03001	160.93854	700.58002	 44.40	
  6.787	 69.246	159.11679	 84.34891	 62.71766	101.67784	 43.16036	  5.02292	161.00755	700.57001	 44.40	
  6.800	 83.015	159.13098	 76.91179	 69.45688	103.20931	 41.97188	  4.94806	160.97052	700.52002	 44.40	
  6.800	 96.985	159.13739	 69.45088	 77.72886	102.88757	 42.22766	  4.90522	160.97813	700.53003	 44.40	
  6.787	110.754	159.16512	 62.48656	 84.95501	100.51368	 44.37800	  4.90854	160.94855	700.58002	 44.40	
  6.792	124.591	159.24748	 56.15107	 91.77869	 96.46741	 48.20208	  4.89769	161.02136	700.64001	 44.40	
  6.795	138.383	159.20732	 51.11135	 97.61280	 90.68806	 53.13834	  4.81869	160.99559	700.53998	 44.40	
  6.808	152.311	159.22296	 47.26991	101.85716	 84.03817	 59.20805	  4.78187	160.99826	700.64001	 44.50	
  6.796	166.229	159.21408	 44.93152	104.38522	 76.51339	 66.29021	  4.68631	161.01707	700.59998	 44.50	
  8.491	168.704	157.67484	 36.84928	111.18871	 74.52699	 65.05112	  4.44267	161.02628	700.63000	 44.50	
  8.502	157.493	157.70482	 38.44322	109.13906	 82.55890	 57.78984	  4.50456	161.01570	700.67999	 44.50	
  8.494	146.194	157.70972	 41.74276	105.51791	 89.71069	 51.21538	  4.56550	161.03821	700.67999	 44.50	
  8.495	135.039	157.70032	 45.93764	100.63425	 96.28321	 45.65331	  4.59504	161.02318	700.59003	 44.60	
  8.487	123.723	157.69482	 51.26531	 94.35558	101.96055	 40.90718	  4.58243	161.01924	700.54999	 44.70	
  8.492	112.575	157.68376	 57.36575	 87.63827	105.97750	 37.33321	  4.51862	161.00725	700.53003	 44.70	
  8.510	101.220	157.66208	 64.29104	 80.33023	108.91387	 35.07055	  4.43575	161.04346	700.52002	 44.90	
  8.500	 90.000	157.64478	 71.64625	 71.93437	109.97786	 34.51221	  4.41621	161.01682	700.63000	 44.90	
  8.510	 78.780	157.56735	 79.23663	 64.26804	109.59454	 34.63798	  4.48111	161.00774	700.57001	 44.90	
  8.492	 67.425	157.53552	 86.81879	 57.87150	107.47347	 36.05888	  4.54286	161.04611	700.63000	 45.00	
  8.487	 56.277	157.53163	 93.52719	 51.58683	103.91314	 38.77687	  4.62917	161.06328	700.67999	 44.90	
  8.495	 44.961	157.49142	 99.80677	 45.92798	 99.04979	 42.72657	  4.69797	161.08664	700.57001	 44.90	
  8.494	 33.806	157.39542	105.04456	 40.97132	 92.87961	 48.15402	  4.79913	161.02599	700.59998	 44.90	
  8.502	 22.507	157.32196	109.06071	 37.36057	 86.28800	 54.19754	  4.91996	161.03111	700.54999	 44.80	
  8.491	 11.296	157.30286	111.69279	 35.29747	 78.96520	 60.97567	  4.97007	161.05571	700.64001	 44.80	
  8.500	  0.000	157.28639	112.87313	 34.54754	 70.78428	 68.45787	  5.03025	161.06348	700.58002	 44.90	
  8.491	-11.296	157.29137	112.19298	 34.97111	 63.43349	 76.12067	  5.10210	161.08978	700.59998	 44.80	
  8.502	-22.507	157.21489	110.12677	 36.43254	 56.35063	 83.87696	  5.14080	161.05093	700.63000	 44.90	
  8.494	-33.806	157.23100	106.45489	 39.47026	 49.89928	 91.05589	  5.12613	161.08246	700.51001	 45.00	
  8.495	-44.961	157.23724	101.65627	 43.69669	 44.24443	 97.77378	  5.07479	161.10204	700.64001	 45.00	
  8.487	-56.277	157.22906	 95.43945	 48.91203	 39.47779	103.20001	  5.04993	161.06921	700.65997	 45.00	
  8.492	-67.425	157.19463	 88.72852	 54.93908	 35.84930	107.46384	  4.98915	161.06436	700.57001	 45.00	
  8.510	-78.780	157.26492	 81.29607	 61.82185	 33.62648	110.45240	  4.95170	161.13405	700.56000	 45.00	
  8.500	-90.000	157.36742	 73.64544	 68.36613	 33.10930	111.46513	  4.89521	161.13924	700.48999	 44.90	
  8.510	-101.220	157.39244	 66.26933	 76.40807	 33.30576	111.03952	  4.84427	161.14282	700.60999	 45.00	
  8.492	-112.575	157.42223	 59.29046	 84.47894	 34.71405	108.95786	  4.74947	161.12311	700.47998	 45.00	
  8.487	-123.723	157.49254	 52.98221	 91.30244	 37.61418	105.41074	  4.67657	161.12328	700.54999	 45.00	
  8.495	-135.039	157.54924	 47.41260	 98.00517	 41.69333	100.46386	  4.67147	161.11720	700.59998	 45.00	
  8.494	-146.194	157.65648	 42.88377	103.46452	 46.94690	 94.53755	  4.62791	161.16528	700.62000	 45.10	
  8.502	-157.493	157.66747	 39.29124	107.78375	 53.00761	 87.68465	  4.61565	161.13913	700.71002	 45.10	
  8.491	-168.704	157.72856	 37.25760	110.52105	 59.72303	 80.45331	  4.53665	161.17041	700.59003	 45.20	
  8.500	180.000	157.70767	 36.37400	111.71053	 66.86704	 72.61060	  4.45362	161.10434	700.62000	 45.20	
 10.200	180.000	155.67918	 28.23624	118.22805	 64.92811	 71.17521	  4.58260	161.12173	700.57001	 45.20	
 10.191	-170.497	155.63966	 28.87885	117.12063	 57.51415	 78.98942	  4.64551	161.13440	700.59003	 45.10	
 10.210	-161.034	155.56943	 30.41930	114.60432	 50.60117	 86.61774	  4.75278	161.16850	700.60999	 45.10	
 10.194	-151.526	155.52104	 33.39990	110.74303	 44.18670	 93.65018	  4.72207	161.12331	700.64001	 45.20	
 10.190	-142.105	155.49168	 37.20822	105.86391	 38.45071	100.49568	  4.76881	161.15228	700.65997	 45.20	
 10.215	-132.646	155.33553	 42.03283	100.06979	 33.59926	106.28647	  4.82934	161.14702	700.53998	 45.30	
 10.203	-123.092	155.35052	 47.91832	 93.06268	 29.88650	111.03807	  4.84576	161.18021	700.53998	 45.30	
 10.192	-113.678	155.30403	 54.39712	 86.08947	 27.05844	114.60709	  4.90676	161.20282	700.51001	 45.50	
 10.208	-104.249	155.17502	 61.22250	 78.23046	 25.37672	117.04742	  4.96311	161.16312	700.46997	 45.50	
 10.210	-94.801	155.13579	 68.26703	 69.86714	 24.84559	118.12192	  4.98715	161.16331	700.54999	 45.50	
 10.210	-85.199	155.04893	 75.78694	 63.07060	 24.75749	117.81686	  5.07121	161.20428	700.50000	 45.40	
 10.208	-75.751	154.97444	 83.88404	 55.83025	 25.84022	115.95384	  5.08905	161.14522	700.59003	 45.50	
 10.192	-66.322	155.02446	 90.93353	 49.28933	 28.33014	112.89551	  5.12313	161.21588	700.60999	 45.50	
 10.203	-56.908	154.99080	 97.75903	 43.19299	 31.75825	108.41769	  5.12037	161.13191	700.47998	 45.60	
 10.215	-47.354	154.99937	104.13922	 37.83984	 36.28504	102.96511	  5.20100	161.11868	700.59998	 45.60	
 10.190	-37.895	155.01382	109.68969	 33.62096	 41.74301	 96.38930	  5.20670	161.14432	700.51001	 45.60	
 10.194	-28.474	155.01758	113.99245	 30.20055	 47.98214	 89.33303	  5.25469	161.14348	700.56000	 45.60	
 10.210	-18.966	155.08841	117.34172	 27.77660	 54.76562	 81.75339	  5.22757	161.14909	700.56000	 45.60	
 10.191	 -9.503	155.09180	118.82849	 26.83862	 62.01877	 73.90044	  5.18875	161.08878	700.54999	 45.60	
 10.200	  0.000	155.19934	119.36505	 26.63799	 69.44426	 66.27283	  5.14284	161.14078	700.59998	 45.50	
 10.191	  9.503	155.16353	118.42692	 27.22353	 77.55264	 58.63202	  5.06820	161.08714	700.54999	 45.50	
 10.210	 18.966	155.19614	116.00128	 28.96627	 85.18333	 51.75725	  4.98489	161.10243	700.53003	 45.50	
 10.194	 28.474	155.25137	112.30209	 32.00588	 92.12570	 45.46757	  4.87793	161.07249	700.48999	 45.50	
 10.190	 37.895	155.34665	107.66343	 35.81093	 98.99944	 39.84344	  4.74670	161.13763	700.46997	 45.50	
 10.215	 47.354	155.39122	102.02164	 40.17159	104.74285	 35.08501	  4.68124	161.15355	700.45001	 45.40	
 10.203	 56.908	155.39633	 95.25917	 46.41460	109.61382	 31.20987	  4.51399	161.09419	700.34998	 45.40	
 10.192	 66.322	155.47354	 88.41885	 52.83551	113.34119	 28.42364	  4.43907	161.12152	700.42999	 45.40	
 10.208	 75.751	155.61282	 81.20230	 59.65321	115.88579	 26.65521	  4.40778	161.17021	700.40997	 45.40	
 10.210	 85.199	155.69397	 73.36871	 66.43179	116.93443	 26.22392	  4.29850	161.16386	700.47998	 45.40	
 10.210	 94.801	155.76877	 65.97444	 74.55260	116.51810	 26.47170	  4.30243	161.17346	700.50000	 45.30	
 10.208	104.249	155.74883	 58.64762	 82.80399	114.68414	 27.60258	  4.28649	161.14276	700.52002	 45.30	
 10.192	113.678	155.80940	 51.90444	 90.09267	111.28064	 30.02846	  4.44333	161.18121	700.58002	 45.20	
 10.203	123.092	155.84109	 45.85392	 97.14436	107.04237	 33.47527	  4.55148	161.20409	700.58002	 45.20	
 10.215	132.646	155.83603	 40.45021	103.44201	101.68620	 37.84155	  4.78720	161.23402	700.53003	 45.20	
 10.190	142.105	155.85529	 36.05782	108.75874	 95.08674	 43.31335	  4.69613	161.22815	700.54999	 45.20	
 10.194	151.526	155.78329	 32.34278	113.01199	 88.04161	 49.42386	  4.63303	161.15947	700.46002	 45.20	
 10.210	161.034	155.79994	 29.69965	116.36870	 80.58534	 56.45056	  4.59624	161.20967	700.46997	 45.30	
 10.191	170.497	155.81816	 28.72842	117.94901	 72.19569	 63.66380	  4.58053	161.22374	700.51001	 45.30	
 11.899	171.783	153.24168	 19.82146	124.39738	 69.83926	 61.84152	  4.80131	161.19052	700.53998	 45.40	
 11.890	163.610	153.35304	 20.99677	122.96603	 77.70338	 54.53991	  4.84399	161.22998	700.45001	 45.40	
 11.889	155.445	153.41270	 22.95239	120.15469	 85.69472	 47.58184	  4.90864	161.22513	700.52002	 45.50	
 11.909	147.299	153.37059	 25.80653	116.33790	 93.04430	 41.00233	  5.04968	161.24484	700.46002	 45.50	
 11.902	139.148	153.29161	 29.67891	111.43273	100.33272	 34.97468	  4.99908	161.20815	700.52002	 45.50	
 11.894	130.867	153.40070	 34.69731	105.60382	106.57137	 29.81769	  4.92688	161.25818	700.42999	 45.50	
 11.897	122.732	153.38399	 40.03947	 99.49624	111.98553	 25.34774	  4.64719	161.25931	700.38000	 45.50	
 11.903	114.597	153.32716	 46.11890	 92.18800	116.53432	 22.00781	  4.68792	161.22075	700.41998	 45.50	
 11.893	106.346	153.39636	 52.98328	 84.85159	119.70023	 19.66329	  4.63994	161.28644	700.53998	 45.50	
 11.892	 98.155	153.36385	 60.20597	 76.68523	122.08372	 17.85403	  4.49367	161.25980	700.48999	 45.50	
 11.900	 90.000	153.33499	 67.42989	 68.25851	123.09059	 17.37180	  4.44921	161.25340	700.40002	 45.50	
 11.892	 81.845	153.21947	 74.72361	 61.64521	122.87716	 17.17600	  4.52639	161.26645	700.45001	 45.50	
 11.893	 73.654	153.15569	 82.69333	 54.29119	121.31875	 17.91393	  4.58077	161.29457	700.46002	 45.50	
 11.903	 65.403	153.00476	 90.12212	 47.30132	118.69099	 20.17381	  4.70711	161.28729	700.35999	 45.50	
 11.897	 57.268	152.98537	 97.01755	 40.93790	114.87228	 23.34474	  4.70895	161.29117	700.40997	 45.50	
 11.894	 49.133	152.87935	103.93651	 35.12236	109.96525	 26.90024	  4.92226	161.25865	700.44000	 45.50	
 11.902	 40.852	152.89708	109.85088	 30.34653	104.14333	 31.60260	  4.96580	161.24623	700.53003	 45.50	
 11.909	 32.701	152.78348	115.08351	 26.03571	 97.77811	 36.81184	  5.02536	161.26793	700.46002	 45.50	
 11.889	 24.555	152.77405	119.19886	 22.85340	 90.72076	 42.87174	  5.11878	161.24974	700.39001	 45.40	
 11.890	 16.390	152.64546	122.55840	 20.20981	 83.45666	 49.21170	  5.19671	161.30232	700.42999	 45.40	
 11.899	  8.217	152.62968	124.73801	 18.26703	 75.52298	 56.23982	  5.23947	161.29601	700.50000	 45.40	
 11.900	  0.000	152.56270	125.55269	 17.61253	 67.64994	 63.71351	  5.30951	161.23219	700.56000	 45.50	
 11.899	 -8.217	152.50992	125.13309	 17.76771	 60.30210	 71.41192	  5.34024	161.22676	700.42999	 45.50	
 11.890	-16.390	152.47919	123.57392	 18.81161	 52.98556	 79.28580	  5.30630	161.24533	700.45001	 45.50	
 11.889	-24.555	152.44379	120.94685	 20.81928	 45.98932	 87.09369	  5.32243	161.30840	700.42999	 45.50	
 11.909	-32.701	152.27541	117.07784	 23.42466	 39.28735	 94.42831	  5.32509	161.26402	700.44000	 45.50	
 11.902	-40.852	152.29039	112.34740	 26.98529	 33.47167	101.61427	  5.35708	161.28775	700.38000	 45.50	
 11.894	-49.133	152.29857	106.38773	 31.86239	 28.30736	107.87946	  5.36474	161.29504	700.40002	 45.50	
 11.897	-57.268	152.32431	 99.80496	 37.39299	 23.98827	113.30259	  5.33042	161.32265	700.44000	 45.50	
 11.903	-65.403	152.23813	 92.89577	 43.24368	 20.42651	117.72148	  5.23303	161.31493	700.46002	 45.50	
 11.893	-73.654	152.21596	 85.71796	 49.92740	 17.80221	121.21004	  5.20873	161.28140	700.50000	 45.50	
 11.892	-81.845	152.26427	 77.47889	 57.04391	 16.11689	123.61475	  5.17495	161.27777	700.53998	 45.50	
 11.900	-90.000	152.40147	 70.21504	 64.32391	 15.87714	124.62688	  5.17743	161.33200	700.47998	 45.40	
 11.892	-98.155	152.51125	 63.04785	 71.23685	 16.15233	124.43704	  5.19341	161.30998	700.44000	 45.50	
 11.893	-106.346	152.54994	 55.77824	 79.63083	 16.93230	122.79883	  5.13425	161.31174	700.41998	 45.50	
 11.903	-114.597	152.60634	 48.70619	 87.61230	 18.81872	120.08370	  5.10777	161.34149	700.48999	 45.50	
 11.897	-122.732	152.75444	 42.45212	 94.44527	 21.81794	116.26360	  5.13044	161.33543	700.46997	 45.50	
 11.894	-130.867	152.84747	 36.49298	101.76186	 25.49073	111.59146	  5.18102	161.33557	700.46997	 45.60	
 11.902	-139.148	152.96802	 31.34144	107.91865	 30.17243	105.66473	  4.94307	161.34215	700.47998	 45.60	
 11.909	-147.299	152.99374	 27.16045	113.26390	 35.33391	 99.33385	  4.94571	161.31757	700.46997	 45.60	
 11.889	-155.445	153.11331	 24.04115	117.74995	 41.50721	 92.19250	  4.91164	161.32176	700.62000	 45.70	
 11.890	-163.610	153.21870	 21.34867	121.26205	 48.17307	 84.99445	  4.96328	161.33673	700.46997	 45.70	
 11.899	-171.783	153.29163	 19.62603	123.69085	 55.22968	 77.17577	  4.87859	161.37198	700.44000	 45.80	
 11.900	180.000	153.35855	 19.34832	124.69440	 62.57833	 69.33997	  4.81008	161.34564	700.58002	 45.80	
 13.600	180.000	150.19614	 10.08906	130.16046	 59.84605	 66.90015	  4.99399	161.31490	700.54999	 45.80	
 13.608	-172.853	150.10956	 10.19365	129.36897	 52.48309	 74.62701	  5.02684	161.32381	700.62000	 45.90	
 13.611	-165.583	150.04552	 11.69025	127.42702	 45.16542	 82.68763	  5.20726	161.30203	700.54999	 45.90	
 13.601	-158.353	150.02570	 14.12392	124.13822	 38.36309	 90.40269	  5.10421	161.32585	700.46002	 45.80	
 13.609	-151.210	149.90082	 17.08980	119.92702	 32.19398	 97.45910	  5.13332	161.33371	700.51001	 45.80	
 13.611	-143.999	149.82137	 20.76774	114.87862	 26.47262	104.43752	  5.12558	161.31593	700.59003	 45.80	
 13.601	-136.825	149.72766	 25.37514	109.18335	 21.45036	110.78843	  5.12826	161.35469	700.62000	 45.80	
 13.596	-129.640	149.65448	 30.56272	103.11166	 16.82896	116.32911	  5.29292	161.40608	700.59003	 45.80	
