FileType=PCF
NHL=14
Date=08/24/17	16:22:07
Facility=APL
Serial=16328-4
Customer=NASA
NP=6
Mach=0.150000
Calibration=1:1
CalPts=490
TstPts=95
PortNumbering=AP Standard
Units=Torr C m/s kg/m^3 deg mm 
Theta[deg]	Phi[deg]	P1[Torr]	P2[Torr]	P3[Torr]	P4[Torr]	P5[Torr]	P6[Torr]	Pt[Torr]	Ps[Abs,Torr]	Ts[C]	
  0.000	  0.000	 11.04061	  6.03073	  6.00306	  5.95290	  6.13074	  0.07475	 11.02838	704.95001	 23.30	
  1.691	128.401	 11.04554	  5.70161	  6.32606	  6.36500	  5.70375	  0.07757	 11.02827	705.11902	 23.30	
  1.692	 77.194	 11.06342	  6.16027	  5.88264	  6.48326	  5.60762	  0.07214	 11.04958	705.21301	 23.30	
  1.699	 26.182	 11.03350	  6.50016	  5.51171	  6.17690	  5.87291	  0.06806	 11.02066	705.24597	 23.30	
  1.699	-26.182	 11.02896	  6.47767	  5.51605	  5.69980	  6.34163	  0.06544	 11.01633	705.22302	 23.30	
  1.692	-77.194	 11.03161	  6.10992	  5.87694	  5.42736	  6.62538	  0.06350	 11.02048	705.16199	 23.30	
  1.691	-128.401	 11.02450	  5.66929	  6.32054	  5.52156	  6.52267	  0.06750	 11.01029	705.13599	 23.30	
  1.700	180.000	 11.03588	  5.47904	  6.53435	  5.93922	  6.11262	  0.07051	 11.02404	705.18402	 23.30	
  3.400	180.000	 11.01787	  4.92397	  7.02848	  5.87138	  6.06499	  0.03895	 11.02203	705.06702	 23.30	
  3.388	-152.325	 10.98974	  5.02045	  6.89209	  5.39405	  6.53997	  0.03715	 10.99774	705.03601	 23.30	
  3.397	-124.529	 11.00110	  5.32877	  6.55135	  5.03607	  6.93502	  0.02651	 11.01592	705.07202	 23.30	
  3.399	-96.763	 11.01332	  5.79642	  6.06422	  4.86558	  7.13031	  0.01603	 11.02958	705.12299	 23.30	
  3.394	-69.283	 11.01204	  6.30179	  5.56534	  4.92663	  7.06352	  0.01838	 11.02733	705.21802	 23.30	
  3.400	-41.398	 11.00728	  6.74343	  5.15471	  5.19550	  6.75402	  0.01839	 11.01815	705.07800	 23.30	
  3.401	-14.021	 11.02096	  6.99870	  4.94277	  5.62239	  6.32030	  0.02581	 11.02542	705.16998	 23.30	
  3.401	 14.021	 11.00320	  7.00325	  4.92987	  6.14294	  5.77655	  0.03349	 11.00304	705.20502	 23.30	
  3.400	 41.398	 11.01066	  6.78661	  5.15718	  6.60008	  5.36025	  0.04959	 11.01028	705.09698	 23.30	
  3.394	 69.283	 11.02983	  6.38254	  5.55502	  6.88544	  5.11143	  0.04713	 11.02473	705.06702	 23.30	
  3.399	 96.763	 11.02026	  5.86991	  6.05356	  6.96991	  5.04161	  0.05466	 11.01648	705.19098	 23.30	
  3.397	124.529	 11.00468	  5.37646	  6.53861	  6.76093	  5.20315	  0.04424	 11.00159	705.22101	 23.30	
  3.388	152.325	 11.01729	  5.06075	  6.90028	  6.38948	  5.56815	  0.05248	 11.01767	705.19598	 23.30	
  5.099	161.165	 10.96876	  4.41647	  7.44163	  6.32783	  5.44340	 -0.00211	 11.01963	705.18402	 23.30	
  5.109	142.013	 10.96740	  4.64980	  7.16739	  6.81570	  4.98897	 -0.00128	 11.01188	705.26300	 23.30	
  5.095	123.033	 11.00576	  5.04902	  6.76579	  7.20926	  4.69085	  0.00611	 11.04230	705.20398	 23.30	
  5.105	104.191	 10.99121	  5.51523	  6.24575	  7.43775	  4.47807	 -0.00147	 11.02900	705.11401	 23.30	
  5.093	 85.207	 10.97289	  6.04324	  5.69539	  7.45756	  4.44625	  0.00373	 11.00932	705.27502	 23.30	
  5.104	 66.290	 10.98153	  6.57919	  5.19229	  7.32079	  4.56770	  0.00203	 11.01551	705.26300	 23.30	
  5.094	 47.331	 11.00446	  7.05004	  4.78872	  7.02366	  4.84155	 -0.00350	 11.04390	705.30798	 23.30	
  5.089	 28.397	 10.97221	  7.36234	  4.47859	  6.57495	  5.20538	 -0.00505	 11.01368	705.09399	 23.30	
  5.096	  9.576	 10.97639	  7.53927	  4.32242	  6.07040	  5.68566	 -0.01291	 11.02525	705.17603	 23.30	
  5.096	 -9.576	 10.96860	  7.52006	  4.32055	  5.51629	  6.23693	 -0.01762	 11.02623	705.09802	 23.30	
  5.089	-28.397	 10.94463	  7.31724	  4.46576	  5.02778	  6.73649	 -0.02577	 11.01180	705.11499	 23.30	
  5.094	-47.331	 10.94590	  6.95728	  4.77590	  4.63570	  7.18274	 -0.03139	 11.01672	705.04700	 23.30	
  5.104	-66.290	 10.96577	  6.49881	  5.20556	  4.36234	  7.52203	 -0.03803	 11.04615	705.19299	 23.30	
  5.093	-85.207	 10.97810	  5.97539	  5.72226	  4.25269	  7.67139	 -0.03585	 11.05877	705.12598	 23.30	
  5.105	-104.191	 10.95077	  5.42677	  6.25597	  4.27873	  7.61202	 -0.03043	 11.03307	705.19598	 23.30	
  5.095	-123.033	 10.94050	  4.95914	  6.75393	  4.47400	  7.37542	 -0.02411	 11.02266	705.22601	 23.30	
  5.109	-142.013	 10.95455	  4.60538	  7.18103	  4.82043	  6.99662	 -0.01502	 11.03245	705.23798	 23.30	
  5.099	-161.165	 10.95324	  4.38721	  7.44531	  5.27238	  6.49764	 -0.00847	 11.02284	705.13599	 23.30	
  5.100	180.000	 10.96039	  4.32513	  7.53441	  5.78562	  5.97301	 -0.00082	 11.02561	705.22601	 23.30	
  6.800	180.000	 10.87585	  3.70290	  8.02829	  5.68286	  5.86809	 -0.06353	 11.02561	705.18103	 23.30	
  6.796	-166.229	 10.87949	  3.74378	  7.97465	  5.17727	  6.39743	 -0.06998	 11.04281	705.31702	 23.30	
  6.808	-152.311	 10.86336	  3.88760	  7.77314	  4.69506	  6.90361	 -0.08515	 11.03907	705.29199	 23.30	
  6.795	-138.383	 10.83812	  4.14751	  7.43190	  4.27010	  7.35799	 -0.08100	 11.02253	705.27197	 23.30	
  6.792	-124.591	 10.83918	  4.49663	  7.01782	  3.95179	  7.72229	 -0.09170	 11.02843	705.22998	 23.30	
  6.787	-110.754	 10.85375	  4.93795	  6.53948	  3.73504	  7.99454	 -0.10928	 11.04450	705.27502	 23.30	
  6.800	-96.985	 10.83259	  5.42001	  6.00438	  3.61382	  8.11316	 -0.11914	 11.01892	704.71997	 23.30	
  6.800	-83.015	 10.86008	  5.96791	  5.48054	  3.62266	  8.12636	 -0.11956	 11.04494	705.18201	 23.30	
  6.787	-69.246	 10.84519	  6.47945	  4.97702	  3.72542	  7.98158	 -0.11910	 11.02866	703.59497	 23.30	
  6.792	-55.409	 10.86142	  6.98794	  4.52806	  3.94700	  7.72773	 -0.11946	 11.03805	704.88599	 23.30	
  6.795	-41.617	 10.85457	  7.40821	  4.16030	  4.26948	  7.34544	 -0.10602	 11.02759	705.16803	 23.30	
  6.808	-27.689	 10.85645	  7.74418	  3.87820	  4.67639	  6.87874	 -0.09482	 11.02174	703.60498	 23.30	
  6.796	-13.771	 10.87820	  7.96786	  3.71708	  5.15504	  6.37948	 -0.09484	 11.03217	705.30298	 23.30	
  6.800	  0.000	 10.88478	  8.04342	  3.66700	  5.67155	  5.84941	 -0.08771	 11.02822	705.35699	 23.30	
  6.796	 13.771	 10.90605	  8.00382	  3.72518	  6.21142	  5.33684	 -0.08011	 11.04082	705.16803	 23.30	
  6.808	 27.689	 10.91198	  7.81633	  3.88888	  6.72588	  4.86205	 -0.07591	 11.04133	705.22998	 23.30	
  6.795	 41.617	 10.91503	  7.50074	  4.17021	  7.17867	  4.46669	 -0.07048	 11.03343	705.05798	 23.30	
  6.792	 55.409	 10.89929	  7.08117	  4.53059	  7.54177	  4.15502	 -0.05982	 11.01843	705.34698	 23.30	
  6.787	 69.246	 10.88969	  6.58577	  4.97021	  7.80678	  3.92870	 -0.06628	 11.00580	705.33698	 23.30	
  6.800	 83.015	 10.90592	  6.08355	  5.46859	  7.96013	  3.82396	 -0.06743	 11.02102	705.24103	 23.30	
  6.800	 96.985	 10.91336	  5.55234	  6.00639	  7.96843	  3.82978	 -0.06773	 11.02810	703.73798	 23.30	
  6.787	110.754	 10.94385	  5.07850	  6.54222	  7.84745	  3.96178	 -0.06385	 11.06102	705.30902	 23.30	
  6.792	124.591	 10.89948	  4.61581	  7.00598	  7.55386	  4.16578	 -0.06244	 11.01815	705.27502	 23.30	
  6.795	138.383	 10.91262	  4.24812	  7.43734	  7.18864	  4.48515	 -0.06284	 11.03583	705.19897	 23.30	
  6.808	152.311	 10.91947	  3.96559	  7.77535	  6.74695	  4.88922	 -0.05719	 11.04875	703.48798	 23.30	
  6.796	166.229	 10.89198	  3.77519	  7.96343	  6.22475	  5.34980	 -0.06997	 11.03359	705.26898	 23.30	
  8.491	168.704	 10.75628	  3.12452	  8.42794	  6.10163	  5.19387	 -0.14912	 11.02726	705.27698	 23.30	
  8.502	157.493	 10.77394	  3.26964	  8.26832	  6.63235	  4.70978	 -0.14537	 11.03713	703.70398	 23.30	
  8.494	146.194	 10.75690	  3.51248	  7.96739	  7.11384	  4.26311	 -0.13145	 11.00648	705.29102	 23.20	
  8.495	135.039	 10.77063	  3.82411	  7.60943	  7.56878	  3.87617	 -0.14775	 11.01680	705.23798	 23.20	
  8.487	123.723	 10.79314	  4.21886	  7.17595	  7.95304	  3.57459	 -0.16004	 11.03675	705.23297	 23.20	
  8.492	112.575	 10.79054	  4.65854	  6.67953	  8.22075	  3.35631	 -0.16416	 11.02776	705.30798	 23.20	
  8.510	101.220	 10.78839	  5.16299	  6.14118	  8.38920	  3.22244	 -0.15968	 11.02708	705.23297	 23.20	
  8.500	 90.000	 10.79195	  5.69988	  5.59853	  8.44029	  3.18207	 -0.15487	 11.02707	705.36200	 23.20	
  8.510	 78.780	 10.79650	  6.23948	  5.07129	  8.38724	  3.22175	 -0.15623	 11.02919	705.34003	 23.30	
  8.492	 67.425	 10.79433	  6.77483	  4.56463	  8.20191	  3.35783	 -0.13919	 11.03471	703.58002	 23.20	
  8.487	 56.277	 10.78199	  7.25208	  4.11854	  7.91989	  3.56757	 -0.13528	 11.01784	705.29199	 23.30	
  8.495	 44.961	 10.78183	  7.69261	  3.72637	  7.54768	  3.86865	 -0.14672	 11.02080	705.31598	 23.20	
  8.494	 33.806	 10.78535	  8.04878	  3.42289	  7.10267	  4.24945	 -0.15957	 11.02725	705.31598	 23.20	
  8.502	 22.507	 10.78588	  8.32069	  3.19350	  6.60962	  4.69070	 -0.16368	 11.03507	704.80402	 23.30	
  8.491	 11.296	 10.77802	  8.46714	  3.06211	  6.08444	  5.17773	 -0.16999	 11.03901	705.37903	 23.30	
  8.500	  0.000	 10.76168	  8.50290	  3.01513	  5.53090	  5.70849	 -0.18296	 11.03158	705.42102	 23.30	
  8.491	-11.296	 10.72714	  8.41537	  3.05509	  4.99063	  6.23659	 -0.18257	 11.01380	705.44397	 23.20	
  8.502	-22.507	 10.72452	  8.24113	  3.18997	  4.49728	  6.77017	 -0.17853	 11.02297	705.02899	 23.20	
  8.494	-33.806	 10.72497	  7.96089	  3.41880	  4.04254	  7.28546	 -0.18030	 11.03557	704.88000	 23.20	
  8.495	-44.961	 10.70980	  7.58076	  3.72263	  3.66304	  7.71889	 -0.19824	 11.02718	703.66699	 23.30	
  8.487	-56.277	 10.71286	  7.12730	  4.12023	  3.35907	  8.09089	 -0.21846	 11.03386	703.72198	 23.20	
  8.492	-67.425	 10.71425	  6.63216	  4.56569	  3.13510	  8.36697	 -0.21678	 11.04199	703.66699	 23.30	
  8.510	-78.780	 10.68170	  6.07401	  5.05128	  2.97754	  8.52449	 -0.21534	 11.01629	705.11902	 23.20	
  8.500	-90.000	 10.69686	  5.53564	  5.59705	  2.94138	  8.59374	 -0.21938	 11.03218	705.33002	 23.20	
  8.510	-101.220	 10.69310	  5.01065	  6.13724	  2.98347	  8.54125	 -0.20825	 11.03315	704.40302	 23.20	
  8.492	-112.575	 10.70599	  4.51423	  6.68663	  3.13561	  8.37516	 -0.19131	 11.04237	703.66803	 23.30	
  8.487	-123.723	 10.70651	  4.07941	  7.18156	  3.35930	  8.10892	 -0.17031	 11.04478	703.74597	 23.30	
  8.495	-135.039	 10.70700	  3.70798	  7.62537	  3.66525	  7.74897	 -0.15926	 11.04416	704.28699	 23.20	
  8.494	-146.194	 10.71667	  3.41807	  7.99197	  4.05533	  7.30937	 -0.16279	 11.04592	703.93201	 23.20	
  8.502	-157.493	 10.72961	  3.20957	  8.27476	  4.52025	  6.80654	 -0.16072	 11.04735	704.78497	 23.20	
  8.491	-168.704	 10.72565	  3.09388	  8.42358	  5.01208	  6.26996	 -0.14494	 11.02308	705.09698	 23.20	
  8.500	180.000	 10.75700	  3.06016	  8.50128	  5.55344	  5.73830	 -0.15157	 11.04202	703.65302	 23.30	
 10.200	180.000	 10.57350	  2.41130	  8.91360	  5.38136	  5.57062	 -0.24025	 11.03084	704.33197	 23.20	
 10.191	-170.497	 10.54224	  2.42521	  8.85708	  4.83812	  6.10361	 -0.23754	 11.01584	703.78497	 23.30	
 10.210	-161.034	 10.53998	  2.52486	  8.72420	  4.32723	  6.65083	 -0.24661	 11.03151	705.39801	 23.20	
 10.194	-151.526	 10.52721	  2.69301	  8.48444	  3.84547	  7.17510	 -0.25890	 11.03582	703.54102	 23.20	
 10.190	-142.105	 10.52991	  2.94906	  8.16622	  3.42685	  7.66625	 -0.24647	 11.04838	703.65002	 23.20	
 10.215	-132.646	 10.51221	  3.25638	  7.76430	  3.05788	  8.08442	 -0.24452	 11.03862	703.68402	 23.20	
 10.203	-123.092	 10.51264	  3.63958	  7.30235	  2.75336	  8.45016	 -0.25437	 11.04465	703.64502	 23.20	
 10.192	-113.678	 10.50173	  4.07727	  6.78642	  2.52580	  8.71688	 -0.27847	 11.03010	705.24103	 23.20	
 10.208	-104.249	 10.50302	  4.55520	  6.25808	  2.37099	  8.90979	 -0.29903	 11.03320	705.41602	 23.20	
 10.210	-94.801	 10.49557	  5.06842	  5.70194	  2.28503	  8.99942	 -0.31544	 11.02678	703.95801	 23.20	
 10.210	-85.199	 10.52339	  5.63627	  5.15875	  2.28894	  9.02097	 -0.32362	 11.05390	705.45697	 23.20	
 10.208	-75.751	 10.50482	  6.17695	  4.62205	  2.36315	  8.89961	 -0.31990	 11.02615	704.68701	 23.20	
 10.192	-66.322	 10.51268	  6.71731	  4.13307	  2.52167	  8.70376	 -0.32083	 11.02669	704.98798	 23.20	
 10.203	-56.908	 10.53607	  7.24737	  3.68475	  2.75139	  8.43970	 -0.30826	 11.04652	703.84198	 23.20	
 10.215	-47.354	 10.52210	  7.70698	  3.27993	  3.04549	  8.05754	 -0.29718	 11.02150	703.88501	 23.20	
 10.190	-37.895	 10.54466	  8.12354	  2.95683	  3.40757	  7.64107	 -0.27603	 11.04429	703.81598	 23.20	
 10.194	-28.474	 10.56121	  8.45909	  2.70374	  3.83389	  7.16220	 -0.26199	 11.04471	703.73798	 23.20	
 10.210	-18.966	 10.56398	  8.70910	  2.50316	  4.30946	  6.62656	 -0.26751	 11.03487	703.70697	 23.20	
 10.191	 -9.503	 10.57186	  8.85889	  2.39357	  4.81862	  6.08401	 -0.27338	 11.02649	703.73199	 23.20	
 10.200	  0.000	 10.59946	  8.93818	  2.35578	  5.35908	  5.54833	 -0.27506	 11.04220	705.27802	 23.20	
 10.191	  9.503	 10.60756	  8.90060	  2.39085	  5.91186	  5.00500	 -0.26718	 11.03389	703.99402	 23.20	
 10.210	 18.966	 10.62188	  8.77954	  2.49825	  6.45806	  4.49977	 -0.26028	 11.03624	703.69000	 23.20	
 10.194	 28.474	 10.64424	  8.56218	  2.70003	  6.99101	  4.04172	 -0.25330	 11.05054	703.76099	 23.20	
 10.190	 37.895	 10.63254	  8.23695	  2.95726	  7.47224	  3.61208	 -0.24159	 11.03407	703.78802	 23.20	
 10.215	 47.354	 10.63281	  7.84632	  3.28589	  7.91545	  3.24531	 -0.23329	 11.03242	703.84497	 23.20	
 10.203	 56.908	 10.64210	  7.40173	  3.68717	  8.28592	  2.96223	 -0.21830	 11.04208	703.84802	 23.20	
 10.192	 66.322	 10.65296	  6.90675	  4.14571	  8.57063	  2.75846	 -0.23027	 11.04935	704.69397	 23.20	
 10.208	 75.751	 10.62906	  6.36188	  4.62600	  8.75683	  2.59870	 -0.24060	 11.02474	703.79797	 23.20	
 10.210	 85.199	 10.63878	  5.82570	  5.15412	  8.87063	  2.52457	 -0.25215	 11.03836	703.87903	 23.20	
 10.210	 94.801	 10.61294	  5.25992	  5.69653	  8.84867	  2.52760	 -0.25780	 11.00869	705.26001	 23.20	
 10.208	104.249	 10.62766	  4.73906	  6.25519	  8.76586	  2.60741	 -0.25586	 11.02453	704.07300	 23.20	
 10.192	113.678	 10.63618	  4.26011	  6.79035	  8.56690	  2.77466	 -0.25129	 11.02417	705.42102	 23.20	
 10.203	123.092	 10.64676	  3.80996	  7.30701	  8.30920	  2.98564	 -0.24978	 11.04369	705.41602	 23.20	
 10.215	132.646	 10.62068	  3.39916	  7.75768	  7.93586	  3.26704	 -0.23833	 11.02288	705.45697	 23.20	
 10.190	142.105	 10.61695	  3.06675	  8.15320	  7.49690	  3.63479	 -0.22080	 11.02671	705.40198	 23.20	
 10.194	151.526	 10.61519	  2.79694	  8.48134	  7.01776	  4.05481	 -0.22055	 11.03259	703.83698	 23.20	
 10.210	161.034	 10.61938	  2.59795	  8.73256	  6.49875	  4.52793	 -0.22839	 11.04503	703.92401	 23.20	
 10.191	170.497	 10.58326	  2.46637	  8.85602	  5.94101	  5.02603	 -0.23750	 11.02081	703.77698	 23.20	
 11.899	171.783	 10.39722	  1.81777	  9.27412	  5.76811	  4.83610	 -0.33049	 11.04668	703.80298	 23.20	
 11.890	163.610	 10.40695	  1.92936	  9.14265	  6.31794	  4.32671	 -0.32146	 11.03896	703.81598	 23.20	
 11.889	155.445	 10.40021	  2.10369	  8.91444	  6.84298	  3.84304	 -0.30757	 11.01827	703.65002	 23.20	
 11.909	147.299	 10.42570	  2.32890	  8.65183	  7.37210	  3.39836	 -0.30595	 11.04133	703.78802	 23.20	
 11.902	139.148	 10.42546	  2.61954	  8.28596	  7.83709	  3.00407	 -0.31487	 11.03081	703.71301	 23.20	
 11.894	130.867	 10.43930	  2.97905	  7.86505	  8.25763	  2.67266	 -0.33408	 11.03449	703.69800	 23.20	
 11.897	122.732	 10.44091	  3.37182	  7.39752	  8.61451	  2.38804	 -0.34662	 11.03574	703.84198	 23.20	
 11.903	114.597	 10.43282	  3.81253	  6.88334	  8.89619	  2.16083	 -0.35415	 11.02821	703.84698	 23.20	
 11.893	106.346	 10.43970	  4.31318	  6.34046	  9.10914	  2.00613	 -0.36005	 11.03437	703.86499	 23.20	
 11.892	 98.155	 10.44144	  4.83062	  5.78941	  9.23980	  1.90584	 -0.36285	 11.03911	703.95697	 23.20	
 11.900	 90.000	 10.43447	  5.36832	  5.23368	  9.27257	  1.87176	 -0.35495	 11.02956	703.77502	 23.20	
 11.892	 81.845	 10.43845	  5.92428	  4.69617	  9.22421	  1.90937	 -0.33917	 11.03646	703.86200	 23.20	
 11.893	 73.654	 10.43018	  6.46578	  4.17236	  9.08267	  1.99937	 -0.32557	 11.02645	703.80902	 23.20	
 11.903	 65.403	 10.44641	  7.01197	  3.68738	  8.87956	  2.15845	 -0.30712	 11.04225	703.77100	 23.20	
 11.897	 57.268	 10.44159	  7.50932	  3.24038	  8.58052	  2.37554	 -0.29890	 11.03469	703.83099	 23.20	
 11.894	 49.133	 10.44827	  7.97166	  2.85032	  8.22104	  2.65935	 -0.30662	 11.04618	703.79999	 23.20	
 11.902	 40.852	 10.45038	  8.38917	  2.49887	  7.80528	  2.98739	 -0.32027	 11.04800	703.84998	 23.20	
 11.909	 32.701	 10.43635	  8.72143	  2.21388	  7.31938	  3.37858	 -0.34087	 11.03692	703.70898	 23.20	
 11.889	 24.555	 10.44348	  9.00230	  1.99913	  6.80895	  3.83134	 -0.34870	 11.05005	703.78497	 23.20	
 11.890	 16.390	 10.41893	  9.17430	  1.83744	  6.26948	  4.29073	 -0.36938	 11.03209	703.86499	 23.20	
 11.899	  8.217	 10.40509	  9.28928	  1.74269	  5.72028	  4.80633	 -0.37068	 11.03430	703.62500	 23.20	
 11.900	  0.000	 10.39105	  9.31983	  1.70658	  5.16150	  5.35057	 -0.36425	 11.03757	703.78802	 23.20	
 11.899	 -8.217	 10.36976	  9.26067	  1.73860	  4.61859	  5.89579	 -0.35276	 11.03425	703.75702	 23.20	
 11.890	-16.390	 10.38114	  9.14120	  1.84363	  4.11751	  6.45800	 -0.34953	 11.06302	703.89001	 23.20	
 11.889	-24.555	 10.33659	  8.89869	  1.98888	  3.60497	  6.98297	 -0.34551	 11.03015	703.78601	 23.20	
 11.909	-32.701	 10.34547	  8.61601	  2.21944	  3.17755	  7.49837	 -0.34422	 11.04929	703.81598	 23.20	
 11.902	-40.852	 10.32868	  8.24138	  2.50342	  2.78526	  7.95545	 -0.36235	 11.04095	703.69299	 23.20	
 11.894	-49.133	 10.32264	  7.80755	  2.85028	  2.44107	  8.38193	 -0.37903	 11.04240	703.76398	 23.20	
 11.897	-57.268	 10.29907	  7.31318	  3.24047	  2.14989	  8.72960	 -0.39075	 11.02784	703.81702	 23.20	
 11.903	-65.403	 10.28663	  6.79314	  3.67637	  1.91639	  9.01636	 -0.39870	 11.02637	703.82202	 23.20	
 11.893	-73.654	 10.30090	  6.25445	  4.17508	  1.76657	  9.23322	 -0.41104	 11.04029	703.79797	 23.20	
 11.892	-81.845	 10.29822	  5.69985	  4.69840	  1.67552	  9.36074	 -0.41692	 11.04425	703.81702	 23.20	
 11.900	-90.000	 10.27983	  5.14368	  5.22993	  1.63760	  9.39560	 -0.41190	 11.03049	703.85303	 23.20	
 11.892	-98.155	 10.27812	  4.60595	  5.78147	  1.67366	  9.35256	 -0.40037	 11.03111	703.83301	 23.20	
 11.893	-106.346	 10.26209	  4.08949	  6.32413	  1.76419	  9.22035	 -0.38490	 11.02200	703.75500	 23.20	
 11.903	-114.597	 10.26410	  3.61050	  6.87064	  1.91722	  9.02741	 -0.36079	 11.02816	703.91602	 23.20	
 11.897	-122.732	 10.26450	  3.18227	  7.37641	  2.14726	  8.73927	 -0.33711	 11.02231	703.92401	 23.20	
 11.894	-130.867	 10.26756	  2.80560	  7.84237	  2.43596	  8.38374	 -0.32331	 11.02195	703.84497	 23.20	
 11.902	-139.148	 10.29872	  2.47529	  8.29393	  2.80004	  7.97414	 -0.33383	 11.04428	703.99701	 23.20	
 11.909	-147.299	 10.29746	  2.20581	  8.64173	  3.18704	  7.50659	 -0.34564	 11.03548	703.88501	 23.20	
 11.889	-155.445	 10.32842	  2.01774	  8.93574	  3.64474	  7.01216	 -0.34631	 11.04985	703.96802	 23.20	
 11.890	-163.610	 10.31318	  1.87043	  9.11752	  4.12584	  6.45524	 -0.34737	 11.01093	703.84497	 23.20	
 11.899	-171.783	 10.33895	  1.78733	  9.25632	  4.64715	  5.91771	 -0.33659	 11.02103	703.80603	 23.20	
 11.900	180.000	 10.35803	  1.77179	  9.29923	  5.19172	  5.37459	 -0.33374	 11.02351	703.92102	 23.20	
 13.600	180.000	 10.12612	  1.13132	  9.66843	  4.98760	  5.14747	 -0.42875	 11.03743	703.80798	 23.20	
 13.608	-172.853	 10.12133	  1.14168	  9.65431	  4.45257	  5.69453	 -0.43514	 11.06323	703.90601	 23.20	
 13.611	-165.583	 10.06980	  1.20082	  9.50824	  3.90828	  6.22735	 -0.44443	 11.02470	703.89301	 23.20	
 13.601	-158.353	 10.05320	  1.32578	  9.31676	  3.39981	  6.78303	 -0.44694	 11.02971	704.03601	 23.20	
 13.609	-151.210	 10.05073	  1.49494	  9.07640	  2.94799	  7.30561	 -0.43619	 11.04604	703.89600	 23.20	
 13.611	-143.999	 10.02912	  1.72029	  8.74387	  2.52413	  7.79650	 -0.42591	 11.03903	703.81897	 23.20	
 13.601	-136.825	 10.01758	  2.00228	  8.35751	  2.14957	  8.25062	 -0.40919	 11.03529	703.83698	 23.20	
 13.596	-129.640	 10.01311	  2.33575	  7.92022	  1.82243	  8.66258	 -0.40564	 11.03874	703.83398	 23.20	
