FileType=PCF
NHL=14
Date=08/24/17	14:58:49
Facility=APL
Serial=16328-4
Customer=NASA
NP=6
Mach=0.250000
Calibration=1:1
CalPts=490
TstPts=95
PortNumbering=AP Standard
Units=Torr C m/s kg/m^3 deg mm 
Theta[deg]	Phi[deg]	P1[Torr]	P2[Torr]	P3[Torr]	P4[Torr]	P5[Torr]	P6[Torr]	Pt[Torr]	Ps[Abs,Torr]	Ts[C]	
  0.000	  0.000	 30.92386	 16.79635	 16.74470	 16.61226	 17.03150	  0.25932	 30.88212	703.58600	 22.60	
  1.691	128.401	 30.88857	 15.81289	 17.65205	 17.77993	 15.78474	  0.23996	 30.84780	703.54700	 22.60	
  1.692	 77.194	 30.88446	 17.11938	 16.31966	 18.09997	 15.46072	  0.23137	 30.83511	703.47302	 22.60	
  1.699	 26.182	 30.88827	 18.17412	 15.29447	 17.25669	 16.27213	  0.24396	 30.83933	703.42200	 22.60	
  1.699	-26.182	 30.88535	 18.12003	 15.31305	 15.86698	 17.64990	  0.23420	 30.85177	703.58899	 22.60	
  1.692	-77.194	 30.88448	 17.03607	 16.34445	 15.06929	 18.49015	  0.22796	 30.85571	703.40100	 22.60	
  1.691	-128.401	 30.88611	 15.75469	 17.66135	 15.36425	 18.21762	  0.23911	 30.85388	703.55798	 22.60	
  1.700	180.000	 30.87306	 15.19951	 18.25551	 16.53419	 17.00528	  0.25272	 30.82952	703.53497	 22.60	
  3.400	180.000	 30.82795	 13.59648	 19.73899	 16.41565	 16.87958	  0.20162	 30.85176	703.51801	 22.60	
  3.388	-152.325	 30.78967	 13.90174	 19.33608	 15.00808	 18.29498	  0.19204	 30.81913	703.46997	 22.60	
  3.397	-124.529	 30.81376	 14.83766	 18.34076	 13.96501	 19.43401	  0.17986	 30.86146	703.44897	 22.60	
  3.399	-96.763	 30.75879	 16.14681	 16.88270	 13.44610	 19.92198	  0.16524	 30.80533	703.46997	 22.50	
  3.394	-69.283	 30.81604	 17.62418	 15.48037	 13.64020	 19.75447	  0.17496	 30.85497	703.40002	 22.50	
  3.400	-41.398	 30.79594	 18.88817	 14.26595	 14.41862	 18.86635	  0.17690	 30.82343	703.45697	 22.50	
  3.401	-14.021	 30.81267	 19.63869	 13.60987	 15.65298	 17.55961	  0.18162	 30.82600	703.42297	 22.50	
  3.401	 14.021	 30.82532	 19.69168	 13.58372	 17.17278	 16.07061	  0.19579	 30.82717	703.45697	 22.50	
  3.400	 41.398	 30.84654	 19.03403	 14.24508	 18.52731	 14.81352	  0.21438	 30.83755	703.39398	 22.50	
  3.394	 69.283	 30.83489	 17.79889	 15.43314	 19.39249	 14.00234	  0.21230	 30.82300	703.40302	 22.50	
  3.399	 96.763	 30.81438	 16.32648	 16.86516	 19.55580	 13.85610	  0.21298	 30.79149	703.47101	 22.50	
  3.397	124.529	 30.90607	 14.98065	 18.35790	 19.06409	 14.41881	  0.21531	 30.89555	703.59698	 22.50	
  3.388	152.325	 30.90285	 13.99556	 19.39523	 17.91111	 15.49152	  0.20243	 30.90107	703.46002	 22.50	
  5.099	161.165	 30.78469	 12.24524	 20.91190	 17.78576	 15.22292	  0.10626	 30.92489	703.52698	 22.50	
  5.109	142.013	 30.72023	 12.94087	 20.09501	 19.12622	 13.93072	  0.06077	 30.85101	703.42200	 22.50	
  5.095	123.033	 30.76777	 14.04929	 18.93472	 20.21434	 12.99822	  0.08351	 30.87265	703.48499	 22.50	
  5.105	104.191	 30.69711	 15.37811	 17.44287	 20.82170	 12.37282	  0.09720	 30.79601	703.56702	 22.50	
  5.093	 85.207	 30.71348	 16.90743	 15.91935	 20.94779	 12.24864	  0.05381	 30.81350	703.50500	 22.50	
  5.104	 66.290	 30.68595	 18.38437	 14.45128	 20.57279	 12.52631	  0.11064	 30.79711	703.51300	 22.50	
  5.094	 47.331	 30.71047	 19.69787	 13.23567	 19.69998	 13.32081	  0.11119	 30.82197	703.45697	 22.50	
  5.089	 28.397	 30.70070	 20.64605	 12.33375	 18.44882	 14.42635	  0.10561	 30.81740	703.44897	 22.50	
  5.096	  9.576	 30.70414	 21.15035	 11.87993	 16.97897	 15.82244	  0.09138	 30.84946	703.38397	 22.50	
  5.096	 -9.576	 30.69166	 21.07515	 11.91516	 15.40895	 17.37552	  0.03841	 30.85383	703.46198	 22.50	
  5.089	-28.397	 30.68010	 20.53404	 12.37042	 14.05559	 18.81329	  0.08428	 30.86992	703.43903	 22.40	
  5.094	-47.331	 30.63533	 19.48327	 13.25008	 12.90633	 20.04060	  0.01006	 30.82455	703.44202	 22.40	
  5.104	-66.290	 30.60919	 18.14721	 14.46182	 12.10401	 20.93837	 -0.03236	 30.82537	703.50800	 22.40	
  5.093	-85.207	 30.63870	 16.66603	 15.91955	 11.75226	 21.37134	  0.04593	 30.86174	703.32202	 22.40	
  5.105	-104.191	 30.56032	 15.13679	 17.43316	 11.85994	 21.20755	  0.05306	 30.79164	703.38702	 22.40	
  5.095	-123.033	 30.61649	 13.83665	 18.92046	 12.46989	 20.60692	  0.07587	 30.84303	703.40900	 22.40	
  5.109	-142.013	 30.61205	 12.79890	 20.10264	 13.43830	 19.53004	  0.09549	 30.83197	703.39099	 22.40	
  5.099	-161.165	 30.63005	 12.15552	 20.86130	 14.72231	 18.14219	  0.09832	 30.82657	703.36102	 22.40	
  5.100	180.000	 30.68395	 11.96183	 21.13013	 16.20431	 16.65446	  0.07103	 30.85147	703.44897	 22.40	
  6.800	180.000	 30.43579	 10.22743	 22.49443	 15.89724	 16.35547	 -0.12282	 30.86291	703.40900	 22.40	
  6.796	-166.229	 30.36451	 10.33960	 22.28126	 14.42270	 17.81358	 -0.12346	 30.82709	703.29303	 22.40	
  6.808	-152.311	 30.34936	 10.79730	 21.72837	 13.08353	 19.24991	 -0.14396	 30.84830	703.35498	 22.40	
  6.795	-138.383	 30.31473	 11.55067	 20.79977	 11.91838	 20.52950	 -0.11655	 30.83136	703.34198	 22.30	
  6.792	-124.591	 30.30076	 12.54662	 19.62013	 10.98189	 21.57167	 -0.16893	 30.83502	703.33899	 22.30	
  6.787	-110.754	 30.30818	 13.78572	 18.24727	 10.34881	 22.29389	 -0.20689	 30.85034	703.40002	 22.30	
  6.800	-96.985	 30.31551	 15.15380	 16.76612	 10.00119	 22.67005	 -0.22750	 30.84016	703.40900	 22.30	
  6.800	-83.015	 30.29819	 16.65254	 15.22743	  9.95828	 22.64433	 -0.24343	 30.81165	703.45599	 22.30	
  6.787	-69.246	 30.33718	 18.13725	 13.84330	 10.30006	 22.26488	 -0.24991	 30.84093	703.31500	 22.30	
  6.792	-55.409	 30.34192	 19.51917	 12.57501	 10.92658	 21.54106	 -0.20219	 30.83479	703.32202	 22.30	
  6.795	-41.617	 30.35056	 20.72000	 11.52475	 11.86737	 20.47976	 -0.21231	 30.83071	703.37000	 22.30	
  6.808	-27.689	 30.36503	 21.66378	 10.72642	 13.07886	 19.18550	 -0.17471	 30.82714	703.29700	 22.30	
  6.796	-13.771	 30.41459	 22.28268	 10.24870	 14.42721	 17.75191	 -0.12843	 30.84503	703.26599	 22.30	
  6.800	  0.000	 30.47249	 22.54482	 10.09146	 15.88234	 16.29703	 -0.14620	 30.87828	703.29700	 22.30	
  6.796	 13.771	 30.45455	 22.37994	 10.23166	 17.37609	 14.81534	 -0.08235	 30.81995	703.45300	 22.30	
  6.808	 27.689	 30.47558	 21.85274	 10.70751	 18.83733	 13.46670	 -0.11957	 30.82623	703.33502	 22.30	
  6.795	 41.617	 30.48096	 20.98320	 11.50391	 20.11339	 12.32942	 -0.11314	 30.81382	703.25897	 22.30	
  6.792	 55.409	 30.47441	 19.81082	 12.55725	 21.16905	 11.42421	 -0.11166	 30.80877	703.28802	 22.30	
  6.787	 69.246	 30.51417	 18.48365	 13.83870	 21.93594	 10.81803	 -0.10617	 30.84600	703.29102	 22.30	
  6.800	 83.015	 30.45677	 16.98888	 15.21298	 22.29839	 10.47184	 -0.11975	 30.78887	703.39203	 22.30	
  6.800	 96.985	 30.50034	 15.51998	 16.73142	 22.32820	 10.51180	 -0.10900	 30.82744	703.33002	 22.20	
  6.787	110.754	 30.51334	 14.10470	 18.24598	 21.92419	 10.87331	 -0.12416	 30.83809	703.18701	 22.20	
  6.792	124.591	 30.51642	 12.81831	 19.63007	 21.17515	 11.51444	 -0.11050	 30.83740	703.34399	 22.20	
  6.795	138.383	 30.50136	 11.75789	 20.80376	 20.12284	 12.44347	 -0.12556	 30.84952	703.30701	 22.20	
  6.808	152.311	 30.48117	 10.92147	 21.74401	 18.82541	 13.58195	 -0.09997	 30.84425	703.27002	 22.20	
  6.796	166.229	 30.45031	 10.40745	 22.28901	 17.40715	 14.88430	 -0.11365	 30.84548	703.33801	 22.20	
  8.491	168.704	 30.11155	  8.63183	 23.61081	 17.07136	 14.45735	 -0.32795	 30.86333	703.42499	 22.20	
  8.502	157.493	 30.11445	  9.02639	 23.12800	 18.54047	 13.06492	 -0.19068	 30.84930	703.29602	 22.20	
  8.494	146.194	 30.11947	  9.70720	 22.32740	 19.93684	 11.80247	 -0.32838	 30.83015	703.23499	 22.20	
  8.495	135.039	 30.17871	 10.62578	 21.32305	 21.21135	 10.72767	 -0.34701	 30.86379	703.22101	 22.20	
  8.487	123.723	 30.22467	 11.74812	 20.08926	 22.27535	  9.87967	 -0.35756	 30.88855	703.36298	 22.20	
  8.492	112.575	 30.15396	 12.98480	 18.64816	 22.97692	  9.26364	 -0.37280	 30.81909	703.21802	 22.20	
  8.510	101.220	 30.14885	 14.39473	 17.13388	 23.45807	  8.87139	 -0.38048	 30.81335	703.28802	 22.20	
  8.500	 90.000	 30.17986	 15.90386	 15.62550	 23.62228	  8.76540	 -0.36093	 30.83927	703.36603	 22.20	
  8.510	 78.780	 30.19656	 17.43711	 14.12231	 23.48250	  8.87986	 -0.33421	 30.86028	703.18597	 22.20	
  8.492	 67.425	 30.16095	 18.91038	 12.69472	 22.97403	  9.23868	 -0.32332	 30.82601	703.32397	 22.20	
  8.487	 56.277	 30.15137	 20.27057	 11.44053	 22.20040	  9.82739	 -0.31994	 30.82113	703.25702	 22.20	
  8.495	 44.961	 30.15247	 21.50299	 10.32601	 21.15605	 10.66390	 -0.32311	 30.82298	703.30103	 22.20	
  8.494	 33.806	 30.12291	 22.47946	  9.44575	 19.88871	 11.72243	 -0.34042	 30.79442	703.30499	 22.20	
  8.502	 22.507	 30.14445	 23.25074	  8.82632	 18.51014	 12.97497	 -0.37366	 30.84454	703.33502	 22.20	
  8.491	 11.296	 30.13083	 23.66863	  8.47125	 17.02427	 14.36229	 -0.40265	 30.85168	703.25201	 22.20	
  8.500	  0.000	 30.07340	 23.78394	  8.33972	 15.44696	 15.87197	 -0.39014	 30.83019	703.31500	 22.20	
  8.491	-11.296	 30.02120	 23.55363	  8.47968	 13.96087	 17.38322	 -0.38570	 30.81201	703.10699	 22.20	
  8.502	-22.507	 30.04209	 23.08690	  8.87028	 12.58562	 18.88400	 -0.42043	 30.86728	703.15198	 22.20	
  8.494	-33.806	 29.97072	 22.23443	  9.47466	 11.27273	 20.27460	 -0.43317	 30.82486	703.30402	 22.20	
  8.495	-44.961	 29.93065	 21.18250	 10.31799	 10.16339	 21.50403	 -0.45284	 30.81398	703.33801	 22.20	
  8.487	-56.277	 29.96456	 19.93582	 11.43861	  9.31601	 22.54156	 -0.49035	 30.85318	703.25201	 22.20	
  8.492	-67.425	 29.91615	 18.52011	 12.67419	  8.66868	 23.27877	 -0.52453	 30.82208	703.36902	 22.20	
  8.510	-78.780	 29.94181	 17.01931	 14.10672	  8.28845	 23.81060	 -0.52605	 30.86213	703.32397	 22.20	
  8.500	-90.000	 29.90414	 15.47240	 15.59358	  8.13682	 23.95189	 -0.49979	 30.83453	703.33502	 22.20	
  8.510	-101.220	 29.92965	 13.97356	 17.15093	  8.27560	 23.84830	 -0.46996	 30.87463	703.31097	 22.20	
  8.492	-112.575	 29.94093	 12.58702	 18.68412	  8.70328	 23.37855	 -0.43332	 30.88289	703.16699	 22.20	
  8.487	-123.723	 29.87588	 11.34729	 20.03138	  9.31562	 22.57948	 -0.39792	 30.82155	703.14099	 22.20	
  8.495	-135.039	 29.95491	 10.30838	 21.33588	 10.18103	 21.63072	 -0.36539	 30.90316	703.15601	 22.20	
  8.494	-146.194	 29.94387	  9.47581	 22.34953	 11.27249	 20.36632	 -0.34542	 30.86544	703.17999	 22.20	
  8.502	-157.493	 29.95219	  8.87257	 23.11298	 12.56262	 18.92991	 -0.36540	 30.83210	703.14203	 22.20	
  8.491	-168.704	 30.01456	  8.56046	 23.59394	 13.99906	 17.47221	 -0.35299	 30.84995	703.27399	 22.20	
  8.500	180.000	 30.07757	  8.47001	 23.77948	 15.51248	 15.96152	 -0.34333	 30.87290	703.18103	 22.20	
 10.200	180.000	 29.54679	  6.65956	 24.92842	 15.02614	 15.45942	 -0.60837	 30.82591	703.23999	 22.20	
 10.191	-170.497	 29.53133	  6.73743	 24.81106	 13.52196	 17.00926	 -0.60313	 30.85503	703.28802	 22.20	
 10.210	-161.034	 29.48829	  7.00011	 24.41536	 12.06213	 18.53290	 -0.60998	 30.87800	703.28497	 22.20	
 10.194	-151.526	 29.46564	  7.48614	 23.75113	 10.69039	 20.02519	 -0.59784	 30.88559	703.24200	 22.20	
 10.190	-142.105	 29.38933	  8.13562	 22.80630	  9.47646	 21.33936	 -0.58471	 30.85603	703.17200	 22.10	
 10.215	-132.646	 29.37289	  8.98313	 21.69872	  8.45799	 22.53833	 -0.60343	 30.85865	704.97302	 22.20	
 10.203	-123.092	 29.36261	 10.08404	 20.38349	  7.62729	 23.55553	 -0.63185	 30.85874	703.76703	 22.20	
 10.192	-113.678	 29.37910	 11.33153	 18.96077	  6.99501	 24.34588	 -0.68517	 30.87149	703.12201	 22.20	
 10.208	-104.249	 29.37414	 12.69295	 17.46297	  6.56788	 24.87989	 -0.74664	 30.86305	703.15802	 22.20	
 10.210	-94.801	 29.40048	 14.17967	 15.92060	  6.33366	 25.17785	 -0.78301	 30.88249	703.17798	 22.20	
 10.210	-85.199	 29.38502	 15.71658	 14.33686	  6.34618	 25.14115	 -0.80915	 30.85523	702.98602	 22.20	
 10.208	-75.751	 29.42359	 17.28139	 12.86586	  6.56833	 24.88605	 -0.81401	 30.87789	702.95502	 22.20	
 10.192	-66.322	 29.42666	 18.80026	 11.48723	  7.00959	 24.30097	 -0.80414	 30.85366	704.76801	 22.20	
 10.203	-56.908	 29.46387	 20.26249	 10.22346	  7.62525	 23.53494	 -0.76633	 30.87505	704.74298	 22.20	
 10.215	-47.354	 29.46507	 21.59142	  9.10049	  8.44698	 22.50922	 -0.72223	 30.87183	703.39203	 22.20	
 10.190	-37.895	 29.48465	 22.71519	  8.22819	  9.48280	 21.29982	 -0.69568	 30.85454	704.74200	 22.20	
 10.194	-28.474	 29.52952	 23.66398	  7.51457	 10.67683	 19.96694	 -0.65804	 30.87645	704.73901	 22.20	
 10.210	-18.966	 29.57531	 24.38550	  6.98102	 12.03726	 18.48312	 -0.64980	 30.89017	703.67798	 22.20	
 10.191	 -9.503	 29.62779	 24.82378	  6.69110	 13.51192	 16.96277	 -0.65356	 30.89014	703.27002	 22.20	
 10.200	  0.000	 29.60647	 24.96646	  6.53298	 14.96524	 15.39155	 -0.64121	 30.83146	703.06799	 22.20	
 10.191	  9.503	 29.67626	 24.90647	  6.65768	 16.54942	 13.88377	 -0.65009	 30.86348	703.14398	 22.20	
 10.210	 18.966	 29.69263	 24.55270	  6.94768	 18.07186	 12.44349	 -0.64534	 30.84938	704.82898	 22.20	
 10.194	 28.474	 29.70617	 23.89450	  7.48167	 19.53003	 11.14864	 -0.61853	 30.83571	703.09601	 22.20	
 10.190	 37.895	 29.73728	 23.03179	  8.20319	 20.92472	  9.97228	 -0.58560	 30.85671	703.15198	 22.20	
 10.215	 47.354	 29.71449	 21.93570	  9.08319	 22.14243	  8.95493	 -0.55019	 30.83399	703.12500	 22.20	
 10.203	 56.908	 29.73767	 20.68257	 10.22052	 23.17901	  8.17561	 -0.54369	 30.85304	703.19000	 22.20	
 10.192	 66.322	 29.72975	 19.26818	 11.48623	 23.96552	  7.59093	 -0.54967	 30.84422	703.19501	 22.20	
 10.208	 75.751	 29.70327	 17.77588	 12.85214	 24.51843	  7.16389	 -0.59187	 30.82867	703.33600	 22.20	
 10.210	 85.199	 29.72158	 16.25446	 14.35206	 24.79534	  6.99528	 -0.63110	 30.83681	703.09900	 22.20	
 10.210	 94.801	 29.69098	 14.67674	 15.90915	 24.77051	  6.99786	 -0.65909	 30.80247	703.07098	 22.20	
 10.208	104.249	 29.75397	 13.23504	 17.48158	 24.55353	  7.21979	 -0.67283	 30.86369	703.64600	 22.20	
 10.192	113.678	 29.72435	 11.82900	 18.97227	 23.97219	  7.64366	 -0.64966	 30.83176	703.11401	 22.20	
 10.203	123.092	 29.74940	 10.57981	 20.40439	 23.22811	  8.23337	 -0.62963	 30.86167	703.46503	 22.20	
 10.215	132.646	 29.74305	  9.41920	 21.72587	 22.23152	  8.98478	 -0.60212	 30.87850	704.81097	 22.20	
 10.190	142.105	 29.71078	  8.46493	 22.82733	 20.97934	 10.02167	 -0.56209	 30.85817	704.38800	 22.20	
 10.194	151.526	 29.68483	  7.74025	 23.72330	 19.60668	 11.20871	 -0.55328	 30.85009	703.08502	 22.20	
 10.210	161.034	 29.67317	  7.18924	 24.42114	 18.14137	 12.52493	 -0.56897	 30.87510	703.07300	 22.20	
 10.191	170.497	 29.61437	  6.83807	 24.79527	 16.62608	 13.94542	 -0.58326	 30.83731	703.03699	 22.20	
 11.899	171.783	 29.03235	  5.01987	 25.91471	 16.08284	 13.39144	 -0.84994	 30.85639	703.09302	 22.20	
 11.890	163.610	 29.08766	  5.34543	 25.55430	 17.63915	 11.95899	 -0.82045	 30.85983	703.36700	 22.20	
 11.889	155.445	 29.11495	  5.82511	 24.96091	 19.15384	 10.59048	 -0.80801	 30.85251	703.46503	 22.20	
 11.909	147.299	 29.12589	  6.43794	 24.17242	 20.59462	  9.33983	 -0.80032	 30.84488	702.99799	 22.20	
 11.902	139.148	 29.12661	  7.22381	 23.15128	 21.90614	  8.24828	 -0.81583	 30.82262	703.05499	 22.20	
 11.894	130.867	 29.17628	  8.21154	 21.98180	 23.08421	  7.37375	 -0.85198	 30.83755	703.07599	 22.20	
 11.897	122.732	 29.14228	  9.32527	 20.65866	 24.05107	  6.60361	 -0.89100	 30.80011	703.81097	 22.20	
 11.903	114.597	 29.15196	 10.57893	 19.24026	 24.87034	  6.00853	 -0.92698	 30.82392	703.06299	 22.20	
 11.893	106.346	 29.16433	 11.98292	 17.71282	 25.46541	  5.58261	 -0.96059	 30.82100	703.91199	 22.20	
 11.892	 98.155	 29.17218	 13.44776	 16.16589	 25.82310	  5.32030	 -0.95639	 30.83663	704.70599	 22.30	
 11.900	 90.000	 29.18866	 14.96612	 14.61566	 25.95515	  5.20305	 -0.92632	 30.85651	704.64203	 22.30	
 11.892	 81.845	 29.17014	 16.51467	 13.08569	 25.80177	  5.27966	 -0.87121	 30.84033	704.70398	 22.30	
 11.893	 73.654	 29.13572	 18.03417	 11.60465	 25.40038	  5.51956	 -0.82753	 30.80035	704.69397	 22.30	
 11.903	 65.403	 29.12781	 19.53085	 10.21900	 24.78788	  5.94278	 -0.77182	 30.79290	704.53998	 22.30	
 11.897	 57.268	 29.18217	 20.97369	  8.97660	 24.00701	  6.54469	 -0.74639	 30.84560	704.60797	 22.30	
 11.894	 49.133	 29.19512	 22.26704	  7.90050	 22.99913	  7.31974	 -0.76242	 30.85373	703.97998	 22.30	
 11.902	 40.852	 29.13631	 23.37746	  6.90423	 21.78184	  8.22949	 -0.79597	 30.79884	704.50598	 22.30	
 11.909	 32.701	 29.14745	 24.36002	  6.12671	 20.47370	  9.29300	 -0.87223	 30.82181	704.58801	 22.30	
 11.889	 24.555	 29.13001	 25.09945	  5.54414	 19.01812	 10.54679	 -0.89012	 30.81455	704.63300	 22.30	
 11.890	 16.390	 29.09095	 25.63504	  5.11940	 17.51797	 11.88153	 -0.89752	 30.79882	704.51398	 22.30	
 11.899	  8.217	 29.06172	 25.95047	  4.85682	 15.98843	 13.30708	 -0.90119	 30.80291	704.56500	 22.30	
 11.900	  0.000	 29.03325	 26.03168	  4.75484	 14.41939	 14.84409	 -0.91416	 30.82439	704.68298	 22.30	
 11.899	 -8.217	 28.93551	 25.83118	  4.84768	 12.87267	 16.36072	 -0.89841	 30.77398	704.58698	 22.30	
 11.890	-16.390	 28.91992	 25.45436	  5.13107	 11.43892	 17.89892	 -0.89424	 30.79816	704.56500	 22.30	
 11.889	-24.555	 28.88439	 24.85300	  5.55908	 10.05712	 19.41555	 -0.89562	 30.81046	704.35999	 22.30	
 11.909	-32.701	 28.81854	 24.00967	  6.14662	  8.77871	 20.82874	 -0.90782	 30.78250	704.52600	 22.30	
 11.902	-40.852	 28.79573	 22.98054	  6.93414	  7.73320	 22.13181	 -0.94351	 30.78245	704.43799	 22.30	
 11.894	-49.133	 28.79205	 21.77734	  7.88862	  6.80843	 23.33221	 -0.97684	 30.80889	704.57599	 22.30	
 11.897	-57.268	 28.79852	 20.45735	  8.96922	  5.97594	 24.35512	 -1.01585	 30.84325	704.55701	 22.30	
 11.903	-65.403	 28.76354	 18.98055	 10.19130	  5.35291	 25.13278	 -1.04663	 30.82384	704.49298	 22.30	
 11.893	-73.654	 28.74832	 17.43926	 11.57075	  4.92380	 25.70227	 -1.03788	 30.81203	704.53802	 22.30	
 11.892	-81.845	 28.68934	 15.85808	 13.01714	  4.66834	 26.01704	 -1.04292	 30.76645	704.61603	 22.30	
 11.900	-90.000	 28.72931	 14.33441	 14.55407	  4.57792	 26.20290	 -1.04210	 30.82695	704.56000	 22.30	
 11.892	-98.155	 28.71805	 12.82679	 16.09667	  4.65651	 26.08163	 -1.02291	 30.82365	704.51501	 22.30	
 11.893	-106.346	 28.69135	 11.37769	 17.63396	  4.89107	 25.73610	 -0.96614	 30.80697	704.60199	 22.30	
 11.903	-114.597	 28.67660	 10.01156	 19.15487	  5.28561	 25.17711	 -0.92128	 30.81990	704.50299	 22.30	
 11.897	-122.732	 28.64197	  8.77916	 20.56400	  5.90756	 24.35021	 -0.85616	 30.77626	704.56897	 22.30	
 11.894	-130.867	 28.65213	  7.71172	 21.89033	  6.71994	 23.35501	 -0.81322	 30.77383	704.48102	 22.30	
 11.902	-139.148	 28.69435	  6.83250	 23.10505	  7.73117	 22.17106	 -0.81169	 30.78929	704.38501	 22.30	
 11.909	-147.299	 28.74160	  6.10209	 24.12111	  8.83568	 20.89255	 -0.85439	 30.81240	704.40302	 22.30	
 11.889	-155.445	 28.78336	  5.57770	 24.91363	 10.09227	 19.47722	 -0.88095	 30.80144	704.48999	 22.30	
 11.890	-163.610	 28.81308	  5.16086	 25.48827	 11.46784	 17.95025	 -0.88679	 30.77696	704.47601	 22.30	
 11.899	-171.783	 28.86618	  4.90685	 25.86546	 12.93320	 16.43453	 -0.88976	 30.80047	704.45502	 22.30	
 11.900	180.000	 28.93902	  4.86656	 25.99618	 14.47160	 14.91376	 -0.87573	 30.81355	704.46198	 22.30	
 13.600	180.000	 28.21275	  3.08609	 26.94625	 13.81768	 14.25904	 -1.12505	 30.77522	704.54901	 22.30	
 13.608	-172.853	 28.16415	  3.11415	 26.86208	 12.30191	 15.77055	 -1.14225	 30.79411	704.59399	 22.30	
 13.611	-165.583	 28.13625	  3.31232	 26.57931	 10.83315	 17.32786	 -1.15364	 30.82821	704.55402	 22.30	
 13.601	-158.353	 28.07332	  3.67723	 26.02888	  9.44407	 18.86718	 -1.14269	 30.81262	702.80902	 22.30	
 13.609	-151.210	 28.02671	  4.14212	 25.31350	  8.18105	 20.30768	 -1.12765	 30.80786	704.37402	 22.40	
 13.611	-143.999	 27.98857	  4.78337	 24.41257	  7.02230	 21.69484	 -1.06334	 30.81794	704.39301	 22.40	
 13.601	-136.825	 27.94072	  5.53350	 23.30759	  5.96639	 22.95608	 -1.03296	 30.78321	703.09100	 22.40	
 13.596	-129.640	 27.93028	  6.44831	 22.08915	  5.05839	 24.11338	 -1.02625	 30.79904	704.50598	 22.40	
