FileType=PCF
NHL=14
Date=08/25/17	09:06:24
Facility=APL
Serial=16328-4
Customer=NASA
NP=6
Mach=0.050000
Calibration=1:1
CalPts=490
TstPts=95
PortNumbering=AP Standard
Units=Torr C m/s kg/m^3 deg mm 
Theta[deg]	Phi[deg]	P1[Torr]	P2[Torr]	P3[Torr]	P4[Torr]	P5[Torr]	P6[Torr]	Pt[Torr]	Ps[Abs,Torr]	Ts[C]	
  0.000	  0.000	  1.27885	  0.71698	  0.71617	  0.71604	  0.72338	  0.00780	  1.26997	708.01801	 24.50	
  1.691	128.401	  1.28438	  0.68364	  0.74261	  0.74609	  0.68757	  0.00745	  1.27561	708.11603	 24.50	
  1.692	 77.194	  1.28699	  0.72741	  0.70250	  0.75824	  0.67848	  0.00693	  1.27786	708.11102	 24.50	
  1.699	 26.182	  1.28023	  0.76008	  0.66375	  0.72553	  0.69936	  0.00648	  1.27100	708.15100	 24.50	
  1.699	-26.182	  1.28067	  0.75979	  0.66170	  0.67971	  0.74478	  0.00712	  1.27185	708.08301	 24.50	
  1.692	-77.194	  1.27822	  0.72004	  0.69300	  0.65123	  0.77537	  0.00663	  1.26987	708.06598	 24.50	
  1.691	-128.401	  1.28052	  0.67644	  0.74147	  0.66168	  0.76533	  0.00636	  1.27131	708.03802	 24.50	
  1.700	180.000	  1.28372	  0.66268	  0.76475	  0.70570	  0.72189	  0.00707	  1.27388	707.96399	 24.50	
  3.400	180.000	  1.27383	  0.59210	  0.82186	  0.69409	  0.71307	  0.00401	  1.26714	708.03003	 24.50	
  3.388	-152.325	  1.27733	  0.60397	  0.80954	  0.64306	  0.77078	  0.00461	  1.27130	708.00201	 24.50	
  3.397	-124.529	  1.27589	  0.63635	  0.76882	  0.60283	  0.81437	  0.00253	  1.27061	708.02100	 24.50	
  3.399	-96.763	  1.27542	  0.68688	  0.71408	  0.58412	  0.83569	  0.00275	  1.26958	708.14502	 24.50	
  3.394	-69.283	  1.27590	  0.74331	  0.65929	  0.59079	  0.82801	  0.00262	  1.26998	708.03003	 24.50	
  3.400	-41.398	  1.28138	  0.79554	  0.61863	  0.62222	  0.79712	  0.00203	  1.27624	707.95898	 24.50	
  3.401	-14.021	  1.27596	  0.82117	  0.59248	  0.66506	  0.74326	  0.00276	  1.27071	707.98102	 24.50	
  3.401	 14.021	  1.27229	  0.82014	  0.59095	  0.71900	  0.68397	  0.00315	  1.26545	707.97101	 24.50	
  3.400	 41.398	  1.27634	  0.79591	  0.61618	  0.77267	  0.63889	  0.00491	  1.26912	708.09100	 24.50	
  3.394	 69.283	  1.28069	  0.75019	  0.66191	  0.80923	  0.61341	  0.00451	  1.27306	707.91699	 24.50	
  3.399	 96.763	  1.27681	  0.69309	  0.71441	  0.81462	  0.60641	  0.00479	  1.26977	707.86401	 24.50	
  3.397	124.529	  1.27777	  0.64369	  0.76752	  0.79392	  0.62371	  0.00423	  1.26992	707.88599	 24.50	
  3.388	152.325	  1.27493	  0.60779	  0.80623	  0.74908	  0.66014	  0.00470	  1.26773	708.04602	 24.50	
  5.099	161.165	  1.27192	  0.53634	  0.87085	  0.74646	  0.64859	 -0.00118	  1.27025	708.06097	 24.50	
  5.109	142.013	  1.27605	  0.56454	  0.84233	  0.80368	  0.60025	 -0.00182	  1.27386	707.88800	 24.50	
  5.095	123.033	  1.27210	  0.60421	  0.79261	  0.84245	  0.56274	 -0.00109	  1.26929	707.84399	 24.50	
  5.105	104.191	  1.27607	  0.65766	  0.73860	  0.87078	  0.54226	 -0.00070	  1.27292	707.89398	 24.50	
  5.093	 85.207	  1.27353	  0.71523	  0.67681	  0.87361	  0.53722	 -0.00112	  1.26984	707.88397	 24.50	
  5.104	 66.290	  1.27564	  0.77507	  0.62215	  0.85904	  0.54984	 -0.00140	  1.27284	707.81500	 24.50	
  5.094	 47.331	  1.27163	  0.82467	  0.57354	  0.82042	  0.57775	 -0.00199	  1.26823	707.92499	 24.50	
  5.089	 28.397	  1.27304	  0.86337	  0.54135	  0.77261	  0.62120	 -0.00304	  1.27088	707.87500	 24.50	
  5.096	  9.576	  1.27274	  0.88327	  0.52447	  0.71532	  0.67575	 -0.00437	  1.27058	707.87201	 24.50	
  5.096	 -9.576	  1.27069	  0.88067	  0.52379	  0.65380	  0.73520	 -0.00433	  1.26925	708.01801	 24.50	
  5.089	-28.397	  1.27343	  0.86112	  0.54245	  0.60300	  0.79434	 -0.00362	  1.27319	708.08502	 24.50	
  5.094	-47.331	  1.26823	  0.81737	  0.57363	  0.55642	  0.84161	 -0.00400	  1.26941	707.98700	 24.50	
  5.104	-66.290	  1.27351	  0.76760	  0.62293	  0.52808	  0.88103	 -0.00401	  1.27618	707.94598	 24.50	
  5.093	-85.207	  1.26947	  0.70638	  0.67690	  0.51382	  0.89457	 -0.00319	  1.27129	708.02899	 24.50	
  5.105	-104.191	  1.27130	  0.64776	  0.73899	  0.51817	  0.89055	 -0.00363	  1.27305	707.85498	 24.50	
  5.095	-123.033	  1.27029	  0.59615	  0.79543	  0.54085	  0.86416	 -0.00232	  1.27181	707.96198	 24.50	
  5.109	-142.013	  1.27015	  0.55581	  0.84169	  0.57848	  0.81992	 -0.00235	  1.27185	708.08801	 24.50	
  5.099	-161.165	  1.27089	  0.53205	  0.87240	  0.62909	  0.76495	 -0.00209	  1.27203	707.97302	 24.50	
  5.100	180.000	  1.27565	  0.52696	  0.88608	  0.68883	  0.70767	 -0.00087	  1.27584	707.89099	 24.50	
  6.800	180.000	  1.26275	  0.45483	  0.93951	  0.67532	  0.69389	 -0.00861	  1.27293	708.00500	 24.50	
  6.796	-166.229	  1.26107	  0.45898	  0.93149	  0.61780	  0.75198	 -0.00800	  1.27142	707.88000	 24.50	
  6.808	-152.311	  1.25664	  0.47434	  0.90695	  0.56254	  0.80749	 -0.00875	  1.26823	708.04303	 24.50	
  6.795	-138.383	  1.25674	  0.50359	  0.87055	  0.51639	  0.86028	 -0.00914	  1.26991	707.90302	 24.50	
  6.792	-124.591	  1.25417	  0.54150	  0.82244	  0.47884	  0.90072	 -0.00891	  1.26811	707.86401	 24.50	
  6.787	-110.754	  1.25723	  0.59180	  0.76923	  0.45619	  0.93181	 -0.01108	  1.27161	708.01202	 24.50	
  6.800	-96.985	  1.25661	  0.64650	  0.71025	  0.44276	  0.94683	 -0.01113	  1.27111	707.94800	 24.50	
  6.800	-83.015	  1.25362	  0.70495	  0.64861	  0.44068	  0.94472	 -0.01039	  1.26746	707.98102	 24.50	
  6.787	-69.246	  1.25898	  0.76680	  0.59593	  0.45542	  0.93312	 -0.01095	  1.27270	707.96503	 24.50	
  6.792	-55.409	  1.25673	  0.81948	  0.54509	  0.47806	  0.90092	 -0.01237	  1.26848	707.88000	 24.50	
  6.795	-41.617	  1.25678	  0.86751	  0.50412	  0.51434	  0.85838	 -0.01085	  1.26859	707.99597	 24.50	
  6.808	-27.689	  1.25982	  0.90781	  0.47380	  0.56092	  0.80725	 -0.01157	  1.27124	707.89502	 24.50	
  6.796	-13.771	  1.26562	  0.93481	  0.45837	  0.61697	  0.75307	 -0.01125	  1.27617	707.91498	 24.50	
  6.800	  0.000	  1.25684	  0.93731	  0.44860	  0.66817	  0.68927	 -0.01156	  1.26579	708.00201	 24.50	
  6.796	 13.771	  1.25932	  0.93226	  0.45570	  0.72805	  0.63315	 -0.01020	  1.26704	707.91998	 24.50	
  6.808	 27.689	  1.25936	  0.91076	  0.47295	  0.78513	  0.57987	 -0.00864	  1.26520	707.85602	 24.40	
  6.795	 41.617	  1.26573	  0.87912	  0.50604	  0.83966	  0.53835	 -0.00811	  1.27099	707.96997	 24.50	
  6.792	 55.409	  1.26351	  0.83149	  0.54583	  0.88038	  0.50177	 -0.00689	  1.26850	707.92798	 24.40	
  6.787	 69.246	  1.26739	  0.78043	  0.59641	  0.91366	  0.47934	 -0.00709	  1.27161	708.09497	 24.40	
  6.800	 83.015	  1.26361	  0.71978	  0.64945	  0.92728	  0.46479	 -0.00786	  1.26910	707.84399	 24.40	
  6.800	 96.985	  1.26453	  0.66102	  0.70952	  0.92888	  0.46579	 -0.00626	  1.26963	707.92297	 24.40	
  6.787	110.754	  1.26202	  0.60480	  0.76660	  0.91164	  0.47730	 -0.00733	  1.26750	707.91998	 24.40	
  6.792	124.591	  1.26446	  0.55684	  0.82298	  0.88506	  0.50305	 -0.00842	  1.27012	707.88300	 24.40	
  6.795	138.383	  1.26056	  0.51413	  0.86881	  0.84021	  0.53707	 -0.00683	  1.26688	708.01801	 24.50	
  6.808	152.311	  1.26378	  0.48360	  0.90815	  0.79248	  0.58202	 -0.00799	  1.27110	707.91699	 24.40	
  6.796	166.229	  1.25854	  0.46247	  0.92752	  0.73233	  0.63243	 -0.00818	  1.26589	707.95697	 24.40	
  8.491	168.704	  1.24484	  0.38928	  0.98104	  0.71986	  0.61494	 -0.01726	  1.26728	708.02698	 24.40	
  8.502	157.493	  1.24334	  0.40560	  0.96040	  0.77730	  0.55996	 -0.01540	  1.26462	707.93402	 24.40	
  8.494	146.194	  1.25035	  0.43357	  0.93289	  0.83647	  0.51341	 -0.01510	  1.26953	708.11102	 24.40	
  8.495	135.039	  1.24737	  0.46648	  0.89003	  0.88424	  0.46928	 -0.01611	  1.26699	707.95099	 24.40	
  8.487	123.723	  1.24873	  0.51111	  0.83994	  0.92660	  0.43590	 -0.01678	  1.26771	707.95398	 24.40	
  8.492	112.575	  1.25343	  0.56225	  0.78748	  0.95991	  0.41266	 -0.01593	  1.27248	707.95001	 24.40	
  8.510	101.220	  1.24891	  0.61607	  0.72386	  0.97522	  0.39530	 -0.01511	  1.26866	707.97900	 24.40	
  8.500	 90.000	  1.25263	  0.67737	  0.66522	  0.98369	  0.39190	 -0.01543	  1.26997	707.98700	 24.40	
  8.510	 78.780	  1.25123	  0.73740	  0.60437	  0.97616	  0.39476	 -0.01633	  1.26985	708.00500	 24.40	
  8.492	 67.425	  1.25124	  0.79627	  0.54773	  0.95490	  0.40981	 -0.01636	  1.26985	707.92798	 24.40	
  8.487	 56.277	  1.24920	  0.85032	  0.49723	  0.92233	  0.43326	 -0.01634	  1.26761	707.97900	 24.40	
  8.495	 44.961	  1.24933	  0.90037	  0.45442	  0.88047	  0.46749	 -0.01734	  1.26768	707.87799	 24.40	
  8.494	 33.806	  1.24980	  0.94101	  0.42193	  0.83096	  0.51044	 -0.01984	  1.26948	708.04602	 24.40	
  8.502	 22.507	  1.24818	  0.96962	  0.39646	  0.77426	  0.55937	 -0.01933	  1.26813	708.08502	 24.40	
  8.491	 11.296	  1.25092	  0.98973	  0.38315	  0.71680	  0.61645	 -0.02003	  1.27121	708.09698	 24.40	
  8.500	  0.000	  1.24869	  0.99387	  0.37793	  0.65492	  0.67601	 -0.02131	  1.27159	707.90900	 24.40	
  8.491	-11.296	  1.24948	  0.98710	  0.38382	  0.59707	  0.73794	 -0.02023	  1.27338	707.92798	 24.40	
  8.502	-22.507	  1.24262	  0.96252	  0.39679	  0.53894	  0.79335	 -0.01949	  1.26730	708.04102	 24.40	
  8.494	-33.806	  1.24309	  0.93064	  0.42276	  0.48907	  0.85152	 -0.01985	  1.26869	708.10498	 24.40	
  8.495	-44.961	  1.24009	  0.88720	  0.45589	  0.44577	  0.89967	 -0.02115	  1.26723	708.16998	 24.40	
  8.487	-56.277	  1.24343	  0.83766	  0.50073	  0.41398	  0.94363	 -0.02142	  1.27140	708.04401	 24.40	
  8.492	-67.425	  1.23963	  0.77992	  0.54875	  0.38822	  0.97145	 -0.02096	  1.26813	708.12201	 24.40	
  8.510	-78.780	  1.24358	  0.72186	  0.60700	  0.37358	  0.99518	 -0.02064	  1.27273	708.10498	 24.40	
  8.500	-90.000	  1.24029	  0.65909	  0.66442	  0.36738	  0.99865	 -0.02075	  1.26984	708.11102	 24.40	
  8.510	-101.220	  1.23883	  0.59952	  0.72519	  0.37273	  0.99217	 -0.02038	  1.26968	708.05701	 24.40	
  8.492	-112.575	  1.24156	  0.54591	  0.78666	  0.38948	  0.97446	 -0.01917	  1.27139	708.10602	 24.40	
  8.487	-123.723	  1.24314	  0.49790	  0.84339	  0.41603	  0.94419	 -0.01749	  1.27318	708.05298	 24.40	
  8.495	-135.039	  1.23788	  0.45410	  0.88993	  0.44772	  0.89990	 -0.01746	  1.26732	707.98700	 24.40	
  8.494	-146.194	  1.23620	  0.42052	  0.92859	  0.48973	  0.84789	 -0.01725	  1.26495	707.86298	 24.40	
  8.502	-157.493	  1.24151	  0.39869	  0.96333	  0.54263	  0.79366	 -0.01658	  1.26878	708.23297	 24.40	
  8.491	-168.704	  1.24071	  0.38535	  0.98077	  0.59746	  0.73406	 -0.01587	  1.26682	708.13098	 24.40	
  8.500	180.000	  1.24185	  0.38208	  0.98589	  0.65617	  0.67293	 -0.01653	  1.26588	708.07501	 24.40	
 10.200	180.000	  1.22888	  0.31003	  1.04074	  0.64099	  0.65738	 -0.02616	  1.27299	708.07202	 24.40	
 10.191	-170.497	  1.22428	  0.31232	  1.03255	  0.57999	  0.71708	 -0.02563	  1.26978	708.04999	 24.40	
 10.210	-161.034	  1.22084	  0.32210	  1.01505	  0.52189	  0.77645	 -0.02565	  1.26897	707.93201	 24.40	
 10.194	-151.526	  1.22115	  0.34236	  0.98931	  0.46900	  0.83674	 -0.02562	  1.26961	707.99500	 24.40	
 10.190	-142.105	  1.21831	  0.36890	  0.95128	  0.42106	  0.89030	 -0.02563	  1.26841	707.96399	 24.40	
 10.215	-132.646	  1.21853	  0.40336	  0.90784	  0.38040	  0.93939	 -0.02636	  1.26945	708.09100	 24.40	
 10.203	-123.092	  1.21715	  0.44573	  0.85544	  0.34705	  0.97955	 -0.02764	  1.26858	707.90900	 24.40	
 10.192	-113.678	  1.21544	  0.49488	  0.79643	  0.32129	  1.00940	 -0.02842	  1.26851	707.95001	 24.40	
 10.208	-104.249	  1.21979	  0.54947	  0.73926	  0.30400	  1.03510	 -0.03103	  1.27183	707.93201	 24.40	
 10.210	-94.801	  1.22000	  0.60849	  0.67877	  0.29523	  1.04677	 -0.03089	  1.27226	707.97699	 24.40	
 10.210	-85.199	  1.21612	  0.66783	  0.61360	  0.29377	  1.04263	 -0.03068	  1.26680	707.98199	 24.40	
 10.208	-75.751	  1.22354	  0.73309	  0.55859	  0.30415	  1.03726	 -0.03183	  1.27443	708.01300	 24.40	
 10.192	-66.322	  1.22096	  0.79253	  0.50271	  0.32161	  1.01223	 -0.03197	  1.27092	708.03003	 24.40	
 10.203	-56.908	  1.22580	  0.85294	  0.45330	  0.34675	  0.98368	 -0.03194	  1.27463	707.97101	 24.40	
 10.215	-47.354	  1.21851	  0.90053	  0.40612	  0.37719	  0.93617	 -0.03142	  1.26606	708.10797	 24.50	
 10.190	-37.895	  1.22237	  0.94817	  0.37204	  0.41854	  0.89062	 -0.02860	  1.27007	708.08899	 24.40	
 10.194	-28.474	  1.22420	  0.98660	  0.34278	  0.46497	  0.83657	 -0.02898	  1.27007	708.10498	 24.50	
 10.210	-18.966	  1.22423	  1.01456	  0.32118	  0.51783	  0.77717	 -0.02806	  1.26976	708.01599	 24.50	
 10.191	 -9.503	  1.22878	  1.03431	  0.30920	  0.57557	  0.71774	 -0.02980	  1.27161	707.98798	 24.40	
 10.200	  0.000	  1.22416	  1.03754	  0.30378	  0.63244	  0.65370	 -0.03098	  1.26566	708.08301	 24.40	
 10.191	  9.503	  1.22959	  1.03679	  0.30855	  0.69662	  0.59510	 -0.03048	  1.26945	708.03497	 24.50	
 10.210	 18.966	  1.23812	  1.02842	  0.32314	  0.76203	  0.54210	 -0.02807	  1.27676	708.01202	 24.50	
 10.194	 28.474	  1.23576	  1.00033	  0.34264	  0.81901	  0.48784	 -0.02702	  1.27305	707.98199	 24.50	
 10.190	 37.895	  1.23551	  0.96480	  0.37114	  0.87360	  0.44083	 -0.02682	  1.27337	707.96503	 24.50	
 10.215	 47.354	  1.23055	  0.91827	  0.40557	  0.91975	  0.39921	 -0.02594	  1.26775	708.01300	 24.50	
 10.203	 56.908	  1.23711	  0.87114	  0.45215	  0.96547	  0.36907	 -0.02395	  1.27385	708.07202	 24.50	
 10.192	 66.322	  1.23716	  0.81488	  0.50246	  0.99725	  0.34510	 -0.02360	  1.27407	708.04602	 24.50	
 10.208	 75.751	  1.23700	  0.75509	  0.55709	  1.02020	  0.32693	 -0.02498	  1.27262	708.18201	 24.50	
 10.210	 85.199	  1.23557	  0.69324	  0.61511	  1.03119	  0.31927	 -0.02546	  1.27304	708.15302	 24.50	
 10.210	 94.801	  1.23775	  0.63165	  0.67923	  1.03378	  0.31941	 -0.02482	  1.27540	707.98199	 24.50	
 10.208	104.249	  1.23847	  0.57312	  0.74165	  1.02467	  0.32784	 -0.02547	  1.27666	707.97302	 24.50	
 10.192	113.678	  1.23824	  0.51817	  0.80128	  1.00195	  0.34557	 -0.02499	  1.27399	707.97302	 24.50	
 10.203	123.092	  1.23459	  0.46637	  0.85705	  0.96844	  0.36916	 -0.02736	  1.27231	707.98999	 24.50	
 10.215	132.646	  1.23544	  0.42221	  0.90982	  0.92877	  0.40113	 -0.02730	  1.27267	707.88599	 24.50	
 10.190	142.105	  1.23229	  0.38418	  0.95275	  0.87872	  0.44099	 -0.02542	  1.27134	708.09198	 24.50	
 10.194	151.526	  1.23170	  0.35408	  0.98929	  0.82351	  0.48795	 -0.02532	  1.27127	708.08502	 24.50	
 10.210	161.034	  1.23663	  0.33259	  1.02234	  0.76863	  0.54273	 -0.02551	  1.27803	708.06702	 24.50	
 10.191	170.497	  1.22402	  0.31515	  1.02886	  0.70045	  0.59356	 -0.02575	  1.26580	707.92297	 24.50	
 11.899	171.783	  1.20071	  0.24184	  1.07423	  0.67970	  0.57148	 -0.03723	  1.26609	707.83301	 24.50	
 11.890	163.610	  1.20527	  0.25490	  1.06219	  0.74259	  0.51621	 -0.03565	  1.26966	708.04303	 24.50	
 11.889	155.445	  1.20829	  0.27532	  1.04023	  0.80399	  0.46346	 -0.03533	  1.27132	708.07397	 24.50	
 11.909	147.299	  1.20712	  0.29965	  1.00672	  0.86113	  0.41251	 -0.03523	  1.26856	708.01202	 24.50	
 11.902	139.148	  1.20963	  0.33340	  0.96663	  0.91520	  0.36982	 -0.03622	  1.26968	707.92798	 24.50	
 11.894	130.867	  1.21050	  0.37328	  0.91914	  0.96174	  0.33285	 -0.03704	  1.26939	707.93201	 24.50	
 11.897	122.732	  1.20828	  0.41664	  0.86504	  1.00013	  0.30069	 -0.03676	  1.26768	708.02600	 24.50	
 11.903	114.597	  1.21684	  0.46917	  0.81323	  1.03986	  0.27770	 -0.03624	  1.27634	708.06897	 24.50	
 11.893	106.346	  1.21421	  0.52341	  0.74943	  1.06052	  0.25942	 -0.03435	  1.27270	707.93903	 24.50	
 11.892	 98.155	  1.21366	  0.58079	  0.68691	  1.07432	  0.24749	 -0.03502	  1.27281	708.06897	 24.50	
 11.900	 90.000	  1.20793	  0.63854	  0.62196	  1.07391	  0.24233	 -0.03508	  1.26620	708.04102	 24.50	
 11.892	 81.845	  1.21523	  0.70403	  0.56403	  1.07361	  0.24622	 -0.03681	  1.27395	708.13898	 24.50	
 11.893	 73.654	  1.21289	  0.76460	  0.50506	  1.05676	  0.25675	 -0.03536	  1.27227	708.19897	 24.50	
 11.903	 65.403	  1.21074	  0.82353	  0.44848	  1.02997	  0.27316	 -0.03458	  1.26997	708.06000	 24.50	
 11.897	 57.268	  1.21420	  0.88228	  0.40030	  0.99968	  0.29920	 -0.03438	  1.27335	708.15302	 24.50	
 11.894	 49.133	  1.21119	  0.93223	  0.35619	  0.95622	  0.33060	 -0.03553	  1.27038	708.20697	 24.50	
 11.902	 40.852	  1.21105	  0.97885	  0.31857	  0.90837	  0.36780	 -0.03579	  1.27014	708.05298	 24.50	
 11.909	 32.701	  1.20478	  1.01269	  0.28535	  0.85103	  0.40985	 -0.03589	  1.26406	708.08002	 24.50	
 11.889	 24.555	  1.20935	  1.04774	  0.26245	  0.79609	  0.46135	 -0.03688	  1.26947	708.30298	 24.50	
 11.890	 16.390	  1.20813	  1.06937	  0.24588	  0.73641	  0.51528	 -0.03896	  1.26949	708.26801	 24.50	
 11.899	  8.217	  1.20986	  1.08472	  0.23529	  0.67662	  0.57354	 -0.03973	  1.27244	708.07703	 24.50	
 11.900	  0.000	  1.20385	  1.08364	  0.23060	  0.61095	  0.63250	 -0.03953	  1.26808	708.13898	 24.50	
 11.899	 -8.217	  1.20241	  1.07751	  0.23479	  0.55140	  0.69390	 -0.03855	  1.26893	708.06097	 24.50	
 11.890	-16.390	  1.20051	  1.06092	  0.24593	  0.49400	  0.75518	 -0.03567	  1.26889	708.17902	 24.50	
 11.889	-24.555	  1.20457	  1.04056	  0.26466	  0.44189	  0.81912	 -0.03688	  1.27348	708.19202	 24.50	
 11.909	-32.701	  1.19852	  1.00326	  0.28794	  0.39081	  0.87295	 -0.03749	  1.26898	708.17603	 24.50	
 11.902	-40.852	  1.19676	  0.96079	  0.31939	  0.34752	  0.92468	 -0.03886	  1.26833	708.17401	 24.50	
 11.894	-49.133	  1.19965	  0.91408	  0.35927	  0.31011	  0.97555	 -0.04131	  1.27244	708.16699	 24.50	
 11.897	-57.268	  1.19417	  0.85724	  0.40158	  0.27727	  1.01173	 -0.04071	  1.26721	708.15100	 24.50	
 11.903	-65.403	  1.19137	  0.79821	  0.45024	  0.25214	  1.04276	 -0.04062	  1.26540	708.09802	 24.50	
 11.893	-73.654	  1.19196	  0.73703	  0.50529	  0.23506	  1.06649	 -0.03985	  1.26581	708.32501	 24.50	
 11.892	-81.845	  1.19182	  0.67618	  0.56287	  0.22469	  1.08152	 -0.04010	  1.26739	707.96198	 24.50	
 11.900	-90.000	  1.19652	  0.61654	  0.62600	  0.22118	  1.09146	 -0.03965	  1.27243	708.12000	 24.50	
 11.892	-98.155	  1.19159	  0.55481	  0.68535	  0.22491	  1.08225	 -0.03936	  1.26846	708.01599	 24.50	
 11.893	-106.346	  1.19113	  0.49715	  0.74695	  0.23565	  1.06775	 -0.04043	  1.26808	708.11401	 24.50	
 11.903	-114.597	  1.19231	  0.44329	  0.80876	  0.25365	  1.04633	 -0.03848	  1.27009	708.01599	 24.50	
 11.897	-122.732	  1.19741	  0.39724	  0.86912	  0.28043	  1.01748	 -0.03698	  1.27499	708.19800	 24.50	
 11.894	-130.867	  1.19054	  0.35307	  0.91677	  0.31111	  0.97146	 -0.03572	  1.26804	708.08002	 24.50	
 11.902	-139.148	  1.19458	  0.31722	  0.96714	  0.35083	  0.92614	 -0.03476	  1.27024	708.10602	 24.50	
 11.909	-147.299	  1.19234	  0.28579	  1.00531	  0.39375	  0.87153	 -0.03430	  1.26708	708.10602	 24.50	
 11.889	-155.445	  1.19407	  0.26354	  1.03706	  0.44391	  0.81437	 -0.03470	  1.26684	708.13599	 24.50	
 11.890	-163.610	  1.19637	  0.24769	  1.06066	  0.49883	  0.75429	 -0.03590	  1.26726	708.11401	 24.50	
 11.899	-171.783	  1.20298	  0.23938	  1.08025	  0.55831	  0.69645	 -0.03721	  1.27257	708.13599	 24.50	
 11.900	180.000	  1.19976	  0.23749	  1.08020	  0.61757	  0.63248	 -0.03743	  1.26816	708.11200	 24.50	
 13.600	180.000	  1.16841	  0.16485	  1.11639	  0.59155	  0.60561	 -0.04659	  1.26487	708.23700	 24.50	
 13.608	-172.853	  1.17018	  0.16595	  1.11597	  0.53324	  0.66786	 -0.04815	  1.26826	708.19800	 24.50	
 13.611	-165.583	  1.16740	  0.17330	  1.10263	  0.47381	  0.72897	 -0.04631	  1.26734	708.20203	 24.50	
 13.601	-158.353	  1.16754	  0.18804	  1.08298	  0.41911	  0.79205	 -0.04590	  1.27012	708.11401	 24.50	
 13.609	-151.210	  1.16904	  0.20760	  1.05812	  0.36859	  0.85305	 -0.04578	  1.27373	708.17401	 24.50	
 13.611	-143.999	  1.16233	  0.23171	  1.01659	  0.32071	  0.90423	 -0.04454	  1.26622	708.17902	 24.50	
 13.601	-136.825	  1.16207	  0.26440	  0.97434	  0.28000	  0.95599	 -0.04546	  1.26780	708.08002	 24.50	
 13.596	-129.640	  1.16012	  0.30072	  0.92391	  0.24284	  1.00131	 -0.04571	  1.26624	708.15302	 24.50	
