FileType=PCF
NHL=14
Date=08/30/17	17:20:37
Facility=APL
Serial=16328-20
Customer=NASA
NP=6
Mach=0.100000
Calibration=1:1
CalPts=490
TstPts=95
PortNumbering=AP Standard
Units=Torr C m/s kg/m^3 deg mm 
Theta[deg]	Phi[deg]	P1[Torr]	P2[Torr]	P3[Torr]	P4[Torr]	P5[Torr]	P6[Torr]	Pt[Torr]	Ps[Abs,Torr]	Ts[C]	
  0.000	  0.000	  4.96913	  2.77106	  2.69684	  2.69170	  2.80359	  0.04281	  4.96883	703.20398	 24.00	
  1.691	128.401	  4.96922	  2.62812	  2.83364	  2.85859	  2.62989	  0.04018	  4.97218	704.74500	 24.00	
  1.692	 77.194	  4.97208	  2.81435	  2.64614	  2.90504	  2.58693	  0.04171	  4.97480	704.76801	 24.00	
  1.699	 26.182	  4.97441	  2.96379	  2.49466	  2.78582	  2.69405	  0.03553	  4.97886	704.71802	 24.00	
  1.699	-26.182	  4.97865	  2.96476	  2.48856	  2.58876	  2.88100	  0.03053	  4.98012	704.85199	 24.00	
  1.692	-77.194	  4.97442	  2.80021	  2.63797	  2.46975	  3.00515	  0.03196	  4.97457	704.88300	 24.00	
  1.691	-128.401	  4.97930	  2.62270	  2.83215	  2.51416	  2.97048	  0.03322	  4.98226	704.24402	 24.00	
  1.700	180.000	  4.97750	  2.54945	  2.91556	  2.68213	  2.81139	  0.03962	  4.97900	704.85199	 24.00	
  3.400	180.000	  4.97501	  2.28949	  3.14939	  2.64401	  2.78927	  0.02302	  4.98192	704.77002	 24.00	
  3.388	-152.325	  4.96998	  2.33372	  3.08251	  2.43310	  2.99714	  0.02072	  4.97931	704.82202	 24.00	
  3.397	-124.529	  4.96492	  2.46699	  2.91695	  2.26874	  3.16589	  0.01678	  4.97606	704.74597	 24.00	
  3.399	-96.763	  4.96746	  2.67041	  2.69598	  2.20148	  3.24257	  0.01354	  4.97832	704.76001	 24.00	
  3.394	-69.283	  4.97042	  2.89930	  2.47680	  2.22419	  3.20849	  0.01304	  4.98054	704.96503	 24.00	
  3.400	-41.398	  4.96808	  3.08921	  2.30074	  2.34238	  3.06659	  0.01305	  4.97889	704.85303	 23.90	
  3.401	-14.021	  4.97166	  3.20570	  2.21368	  2.53567	  2.86183	  0.01461	  4.98445	704.78003	 23.90	
  3.401	 14.021	  4.97604	  3.20827	  2.22391	  2.76907	  2.63916	  0.01702	  4.98557	704.93701	 23.90	
  3.400	 41.398	  4.96487	  3.08534	  2.32134	  2.97037	  2.45208	  0.02088	  4.97242	704.91498	 23.90	
  3.394	 69.283	  4.96484	  2.89398	  2.50135	  3.10500	  2.34507	  0.02330	  4.97258	704.89502	 23.90	
  3.399	 96.763	  4.98083	  2.67828	  2.72782	  3.14574	  2.33499	  0.02451	  4.98630	704.90900	 23.90	
  3.397	124.529	  4.96492	  2.47661	  2.92906	  3.04503	  2.40987	  0.02498	  4.97385	704.88702	 23.90	
  3.388	152.325	  4.96594	  2.34304	  3.08775	  2.86914	  2.56085	  0.02509	  4.97442	704.83002	 23.90	
  5.099	161.165	  4.93974	  2.04779	  3.33154	  2.84028	  2.51380	  0.00676	  4.96927	704.87500	 23.90	
  5.109	142.013	  4.94433	  2.15033	  3.21676	  3.06533	  2.31955	  0.00606	  4.97332	704.78400	 23.90	
  5.095	123.033	  4.94547	  2.31355	  3.03420	  3.23979	  2.17057	  0.00736	  4.97241	704.56500	 23.90	
  5.105	104.191	  4.94680	  2.51827	  2.80926	  3.34665	  2.08145	  0.00725	  4.97444	704.09900	 23.90	
  5.093	 85.207	  4.93900	  2.75408	  2.56665	  3.36138	  2.05970	  0.00626	  4.96890	703.81097	 23.90	
  5.104	 66.290	  4.93995	  2.98305	  2.34404	  3.30345	  2.09921	  0.00590	  4.97036	704.13202	 23.90	
  5.094	 47.331	  4.93988	  3.19369	  2.15374	  3.16304	  2.20716	  0.00392	  4.96932	703.80603	 23.90	
  5.089	 28.397	  4.93516	  3.34457	  2.01349	  2.96655	  2.37043	  0.00108	  4.96939	704.89502	 23.90	
  5.096	  9.576	  4.94954	  3.44174	  1.94060	  2.74515	  2.58750	 -0.00118	  4.98593	704.33197	 23.90	
  5.096	 -9.576	  4.94692	  3.43854	  1.93568	  2.49420	  2.83000	 -0.00510	  4.98355	703.66199	 23.90	
  5.089	-28.397	  4.94151	  3.35124	  2.00122	  2.27633	  3.04945	 -0.00752	  4.97737	704.92603	 23.90	
  5.094	-47.331	  4.92988	  3.18802	  2.12111	  2.09165	  3.24520	 -0.01165	  4.96553	704.28601	 23.90	
  5.104	-66.290	  4.94291	  2.98995	  2.31175	  1.97079	  3.40207	 -0.01243	  4.98106	704.92603	 23.90	
  5.093	-85.207	  4.94030	  2.75308	  2.53132	  1.91704	  3.46947	 -0.01054	  4.97556	703.32703	 23.90	
  5.105	-104.191	  4.93768	  2.51677	  2.77360	  1.93141	  3.45663	 -0.00732	  4.97408	704.96002	 23.90	
  5.095	-123.033	  4.94883	  2.31421	  3.01142	  2.02023	  3.36866	 -0.00215	  4.98236	704.95398	 23.90	
  5.109	-142.013	  4.93781	  2.14590	  3.19668	  2.16931	  3.19394	  0.00167	  4.97429	704.98999	 23.90	
  5.099	-161.165	  4.94097	  2.04619	  3.32467	  2.37032	  2.98448	  0.00242	  4.97505	703.33502	 23.90	
  5.100	180.000	  4.93877	  2.01025	  3.37138	  2.59800	  2.74936	  0.00533	  4.97073	704.95398	 23.90	
  6.800	180.000	  4.90217	  1.73099	  3.59491	  2.54944	  2.71035	 -0.02039	  4.97321	704.92603	 23.90	
  6.796	-166.229	  4.90440	  1.75211	  3.56560	  2.31858	  2.94638	 -0.02460	  4.98087	704.03101	 23.90	
  6.808	-152.311	  4.90078	  1.82326	  3.46803	  2.10462	  3.16723	 -0.02644	  4.97968	704.88397	 23.90	
  6.795	-138.383	  4.88660	  1.93599	  3.30829	  1.91527	  3.35815	 -0.02621	  4.96461	704.30103	 23.90	
  6.792	-124.591	  4.89997	  2.10583	  3.12122	  1.77647	  3.52892	 -0.03407	  4.98187	704.94598	 23.90	
  6.787	-110.754	  4.89746	  2.30507	  2.89387	  1.68025	  3.63430	 -0.03990	  4.97713	704.86401	 23.90	
  6.800	-96.985	  4.89140	  2.52142	  2.65634	  1.62603	  3.68561	 -0.04127	  4.97310	704.97900	 23.90	
  6.800	-83.015	  4.88909	  2.76063	  2.41769	  1.62958	  3.67384	 -0.04496	  4.97208	704.92297	 23.90	
  6.787	-69.246	  4.89851	  2.99477	  2.20257	  1.68446	  3.61520	 -0.05007	  4.98196	704.96997	 23.90	
  6.792	-55.409	  4.89407	  3.21339	  2.00468	  1.78384	  3.48858	 -0.04843	  4.97916	705.01898	 23.90	
  6.795	-41.617	  4.89757	  3.39793	  1.85049	  1.93188	  3.32148	 -0.04011	  4.98048	704.82703	 23.90	
  6.808	-27.689	  4.90127	  3.54783	  1.73204	  2.12231	  3.11188	 -0.03859	  4.98465	704.15503	 23.90	
  6.796	-13.771	  4.89126	  3.63331	  1.65820	  2.33182	  2.87757	 -0.03721	  4.97620	703.96002	 23.90	
  6.800	  0.000	  4.89964	  3.66612	  1.64259	  2.56877	  2.64791	 -0.03219	  4.98077	703.81897	 23.90	
  6.796	 13.771	  4.90308	  3.63880	  1.67189	  2.81071	  2.42273	 -0.02999	  4.98140	705.00098	 23.90	
  6.808	 27.689	  4.89850	  3.54804	  1.74733	  3.03372	  2.21643	 -0.02962	  4.97729	704.13000	 23.90	
  6.795	 41.617	  4.90139	  3.39977	  1.87815	  3.24387	  2.04044	 -0.02425	  4.97725	703.34998	 23.90	
  6.792	 55.409	  4.90741	  3.21359	  2.04683	  3.41289	  1.91102	 -0.01898	  4.97934	703.62799	 23.90	
  6.787	 69.246	  4.90923	  3.00098	  2.24489	  3.53012	  1.82171	 -0.02066	  4.97886	705.03198	 23.90	
  6.800	 83.015	  4.89878	  2.75845	  2.46447	  3.58721	  1.77234	 -0.02025	  4.96839	703.29102	 23.80	
  6.800	 96.985	  4.91414	  2.53277	  2.70946	  3.59537	  1.78596	 -0.02233	  4.98455	704.88702	 23.90	
  6.787	110.754	  4.90740	  2.30845	  2.93889	  3.52317	  1.84336	 -0.02213	  4.97558	704.65802	 23.90	
  6.792	124.591	  4.90567	  2.11402	  3.15348	  3.39962	  1.94453	 -0.01928	  4.97246	703.22803	 23.90	
  6.795	138.383	  4.91151	  1.96056	  3.33849	  3.23026	  2.09494	 -0.01661	  4.97793	704.96503	 23.90	
  6.808	152.311	  4.90516	  1.83574	  3.47938	  3.01981	  2.27151	 -0.01848	  4.97165	704.97302	 23.90	
  6.796	166.229	  4.90673	  1.75957	  3.56994	  2.79517	  2.47907	 -0.01895	  4.97733	705.01300	 23.90	
  8.491	168.704	  4.85240	  1.46270	  3.78892	  2.73386	  2.42569	 -0.05390	  4.98028	705.05798	 23.80	
  8.502	157.493	  4.84142	  1.51689	  3.70859	  2.96741	  2.19722	 -0.05552	  4.96624	703.25897	 23.80	
  8.494	146.194	  4.85582	  1.62740	  3.59524	  3.20165	  2.00606	 -0.05269	  4.97928	705.03302	 23.90	
  8.495	135.039	  4.85167	  1.75920	  3.43163	  3.40255	  1.82832	 -0.05274	  4.97525	703.88702	 23.90	
  8.487	123.723	  4.86083	  1.93032	  3.24060	  3.57917	  1.69349	 -0.05780	  4.98554	703.36102	 23.90	
  8.492	112.575	  4.85023	  2.12779	  3.00940	  3.70162	  1.57993	 -0.06589	  4.98005	703.33801	 23.90	
  8.510	101.220	  4.85688	  2.35286	  2.77324	  3.78990	  1.51337	 -0.06422	  4.98332	704.95697	 23.90	
  8.500	 90.000	  4.84684	  2.58400	  2.52624	  3.80499	  1.48964	 -0.05883	  4.97260	703.31299	 23.90	
  8.510	 78.780	  4.85621	  2.82956	  2.29472	  3.79036	  1.50200	 -0.05858	  4.98663	703.44202	 23.90	
  8.492	 67.425	  4.85127	  3.06463	  2.06770	  3.71301	  1.55261	 -0.05890	  4.98448	703.38397	 23.90	
  8.487	 56.277	  4.84997	  3.28417	  1.86710	  3.58940	  1.64477	 -0.05490	  4.98512	704.92499	 23.90	
  8.495	 44.961	  4.84444	  3.48697	  1.68537	  3.42106	  1.77220	 -0.05549	  4.98179	703.54999	 23.90	
  8.494	 33.806	  4.84613	  3.64943	  1.55167	  3.22120	  1.93912	 -0.06276	  4.98443	705.09998	 23.90	
  8.502	 22.507	  4.85160	  3.77777	  1.44871	  2.99843	  2.13675	 -0.06955	  4.99185	704.97101	 23.90	
  8.491	 11.296	  4.83753	  3.84256	  1.38014	  2.74891	  2.34788	 -0.06786	  4.97781	703.44800	 23.90	
  8.500	  0.000	  4.85057	  3.87846	  1.35861	  2.50845	  2.59171	 -0.06838	  4.99400	703.47302	 23.90	
  8.491	-11.296	  4.84905	  3.85662	  1.37197	  2.26775	  2.83242	 -0.07359	  4.99563	703.39398	 23.90	
  8.502	-22.507	  4.85096	  3.78234	  1.42840	  2.04130	  3.07003	 -0.07445	  4.99532	703.50403	 23.90	
  8.494	-33.806	  4.83866	  3.64962	  1.52023	  1.83216	  3.28948	 -0.07425	  4.98447	703.46198	 23.90	
  8.495	-44.961	  4.83878	  3.48925	  1.64822	  1.65947	  3.48953	 -0.08229	  4.99144	703.43402	 23.80	
  8.487	-56.277	  4.84091	  3.28418	  1.81987	  1.51880	  3.66294	 -0.08845	  4.98880	703.35498	 23.90	
  8.492	-67.425	  4.84694	  3.06815	  2.02270	  1.42123	  3.78917	 -0.09213	  4.99288	703.45398	 23.80	
  8.510	-78.780	  4.84520	  2.82874	  2.24062	  1.35233	  3.87403	 -0.08958	  4.99254	703.48700	 23.90	
  8.500	-90.000	  4.83862	  2.57914	  2.47340	  1.33109	  3.90006	 -0.08449	  4.98288	703.38599	 23.80	
  8.510	-101.220	  4.84399	  2.34496	  2.71984	  1.34206	  3.89221	 -0.08266	  4.99001	705.07800	 23.80	
  8.492	-112.575	  4.85307	  2.12567	  2.97331	  1.41024	  3.82567	 -0.07789	  4.99687	703.35797	 23.90	
  8.487	-123.723	  4.84991	  1.92640	  3.19693	  1.50545	  3.71408	 -0.07018	  4.99483	703.45599	 23.90	
  8.495	-135.039	  4.84350	  1.75310	  3.39836	  1.64571	  3.54990	 -0.06141	  4.98554	704.24103	 23.90	
  8.494	-146.194	  4.84308	  1.61584	  3.57321	  1.80809	  3.36202	 -0.06433	  4.98392	703.59802	 23.90	
  8.502	-157.493	  4.84881	  1.52237	  3.69990	  2.02714	  3.13853	 -0.06671	  4.98740	703.56299	 23.90	
  8.491	-168.704	  4.86225	  1.46509	  3.79252	  2.25070	  2.91430	 -0.06294	  4.99631	703.45599	 23.80	
  8.500	180.000	  4.86442	  1.44510	  3.82495	  2.48907	  2.67392	 -0.05474	  4.99518	704.91400	 23.90	
 10.200	180.000	  4.78195	  1.15200	  4.01432	  2.40636	  2.60500	 -0.09411	  4.98893	703.57202	 23.80	
 10.191	-170.497	  4.78106	  1.16831	  3.98843	  2.17044	  2.84842	 -0.10125	  4.99609	703.63599	 23.90	
 10.210	-161.034	  4.77956	  1.21526	  3.92251	  1.93565	  3.09099	 -0.11008	  4.99699	703.72101	 23.80	
 10.194	-151.526	  4.76867	  1.29567	  3.79958	  1.71680	  3.31738	 -0.10832	  4.99137	703.55701	 23.80	
 10.190	-142.105	  4.77003	  1.41360	  3.64520	  1.53160	  3.52982	 -0.10136	  4.99490	703.42603	 23.80	
 10.215	-132.646	  4.76714	  1.55938	  3.45755	  1.37304	  3.71034	 -0.10215	  4.99402	703.55499	 23.80	
 10.203	-123.092	  4.76082	  1.73094	  3.23929	  1.23463	  3.86197	 -0.11028	  4.98695	703.54999	 23.90	
 10.192	-113.678	  4.76828	  1.93696	  3.00968	  1.13876	  3.98210	 -0.11742	  4.99375	703.53302	 23.80	
 10.208	-104.249	  4.75611	  2.14517	  2.76277	  1.06125	  4.05890	 -0.12590	  4.98703	703.38599	 23.90	
 10.210	-94.801	  4.76249	  2.38191	  2.51856	  1.02836	  4.09992	 -0.13255	  4.99488	703.57397	 23.80	
 10.210	-85.199	  4.76499	  2.63149	  2.27408	  1.02870	  4.09426	 -0.13397	  4.99722	703.52502	 23.90	
 10.208	-75.751	  4.75178	  2.87291	  2.03275	  1.06637	  4.03012	 -0.13544	  4.98532	703.55499	 23.80	
 10.192	-66.322	  4.75347	  3.11563	  1.81506	  1.14174	  3.93599	 -0.13486	  4.98602	703.56000	 23.80	
 10.203	-56.908	  4.75992	  3.34334	  1.62416	  1.25015	  3.81049	 -0.13307	  4.99196	703.50500	 23.80	
 10.215	-47.354	  4.75572	  3.54927	  1.45170	  1.38583	  3.63897	 -0.11942	  4.98823	703.62799	 23.80	
 10.190	-37.895	  4.75261	  3.72133	  1.30821	  1.54859	  3.44044	 -0.11314	  4.98440	703.49103	 23.80	
 10.194	-28.474	  4.75236	  3.86174	  1.19827	  1.74358	  3.22092	 -0.11159	  4.98087	703.59497	 23.90	
 10.210	-18.966	  4.75873	  3.97590	  1.12198	  1.95296	  2.99374	 -0.11053	  4.98772	703.53302	 23.80	
 10.191	 -9.503	  4.76158	  4.04418	  1.07464	  2.19296	  2.74652	 -0.11176	  4.98847	703.54401	 23.80	
 10.200	  0.000	  4.76479	  4.06828	  1.06290	  2.43350	  2.50975	 -0.10598	  4.99194	703.58099	 23.80	
 10.191	  9.503	  4.77105	  4.04856	  1.08749	  2.68823	  2.27112	 -0.10756	  4.99397	703.54401	 23.90	
 10.210	 18.966	  4.77378	  3.98342	  1.14331	  2.93708	  2.04981	 -0.10938	  4.99858	703.47302	 23.80	
 10.194	 28.474	  4.76776	  3.86953	  1.22933	  3.16946	  1.84000	 -0.10728	  4.98597	703.54401	 23.90	
 10.190	 37.895	  4.77975	  3.73475	  1.35095	  3.39862	  1.66107	 -0.09729	  4.99835	703.60498	 23.90	
 10.215	 47.354	  4.77206	  3.55433	  1.49714	  3.58303	  1.50543	 -0.09096	  4.98708	704.14099	 23.90	
 10.203	 56.908	  4.78115	  3.35121	  1.68277	  3.74940	  1.38335	 -0.08923	  4.99017	703.48798	 23.90	
 10.192	 66.322	  4.78400	  3.12450	  1.88679	  3.87668	  1.29400	 -0.09327	  4.99112	703.50800	 23.80	
 10.208	 75.751	  4.78618	  2.88497	  2.10834	  3.96445	  1.23407	 -0.09757	  4.98936	703.58801	 23.80	
 10.210	 85.199	  4.79038	  2.64485	  2.34324	  4.01401	  1.20474	 -0.09997	  4.99409	703.57001	 23.90	
 10.210	 94.801	  4.79453	  2.39557	  2.60077	  4.01068	  1.21221	 -0.10332	  4.99467	703.46503	 23.80	
 10.208	104.249	  4.80030	  2.16724	  2.84410	  3.96882	  1.25436	 -0.10900	  5.00170	703.52399	 23.80	
 10.192	113.678	  4.79645	  1.94645	  3.08240	  3.87183	  1.33026	 -0.10653	  4.99561	704.12598	 23.80	
 10.203	123.092	  4.79665	  1.74553	  3.31085	  3.74311	  1.43559	 -0.09867	  4.99520	703.57501	 23.80	
 10.215	132.646	  4.79081	  1.56879	  3.51337	  3.57256	  1.56341	 -0.09179	  4.98885	703.55798	 23.80	
 10.190	142.105	  4.79331	  1.42360	  3.69117	  3.37189	  1.73298	 -0.09011	  4.99018	703.56299	 23.80	
 10.194	151.526	  4.79518	  1.30934	  3.83583	  3.14617	  1.92957	 -0.09186	  4.99355	703.48798	 23.80	
 10.210	161.034	  4.79052	  1.22262	  3.93895	  2.90779	  2.13690	 -0.09545	  4.98997	703.51801	 23.80	
 10.191	170.497	  4.78027	  1.17257	  3.99151	  2.66083	  2.35887	 -0.09361	  4.98235	703.49597	 23.80	
 11.899	171.783	  4.69588	  0.87710	  4.18181	  2.57638	  2.28286	 -0.13590	  4.99512	703.51001	 23.80	
 11.890	163.610	  4.70021	  0.92025	  4.13001	  2.82178	  2.05895	 -0.13362	  4.99279	703.60498	 23.80	
 11.889	155.445	  4.69692	  0.99344	  4.03427	  3.06489	  1.83593	 -0.13106	  4.98417	703.57800	 23.80	
 11.909	147.299	  4.70293	  1.08919	  3.91598	  3.30083	  1.63837	 -0.12958	  4.99107	703.51202	 23.80	
 11.902	139.148	  4.70330	  1.21746	  3.75760	  3.52112	  1.45702	 -0.12860	  4.99192	703.66199	 23.80	
 11.894	130.867	  4.70999	  1.37202	  3.57548	  3.71466	  1.30792	 -0.13409	  4.99691	703.60602	 23.80	
 11.897	122.732	  4.70729	  1.54570	  3.36248	  3.88452	  1.16975	 -0.14471	  4.99832	703.51801	 23.80	
 11.903	114.597	  4.69183	  1.73919	  3.12530	  4.00643	  1.06117	 -0.15082	  4.98461	703.61902	 23.80	
 11.893	106.346	  4.69844	  1.95919	  2.88605	  4.11574	  0.98305	 -0.15350	  4.99299	703.60901	 23.80	
 11.892	 98.155	  4.69167	  2.18649	  2.63342	  4.16918	  0.93498	 -0.15406	  4.98858	703.60602	 23.80	
 11.900	 90.000	  4.69019	  2.42594	  2.38438	  4.19378	  0.91152	 -0.14795	  4.98623	703.64502	 23.80	
 11.892	 81.845	  4.70318	  2.68178	  2.14675	  4.18285	  0.92524	 -0.14073	  5.00221	703.68201	 23.80	
 11.893	 73.654	  4.69396	  2.92309	  1.90930	  4.11897	  0.95901	 -0.13628	  4.99436	703.65698	 23.80	
 11.903	 65.403	  4.68362	  3.15981	  1.68298	  4.02231	  1.01956	 -0.13104	  4.99009	703.56403	 23.80	
 11.897	 57.268	  4.68596	  3.39083	  1.48526	  3.89756	  1.10971	 -0.12748	  4.99572	703.62598	 23.80	
 11.894	 49.133	  4.68079	  3.59585	  1.30883	  3.72776	  1.23699	 -0.12469	  4.98947	703.64600	 23.80	
 11.902	 40.852	  4.68248	  3.78816	  1.15148	  3.54194	  1.37998	 -0.13283	  4.99602	703.56702	 23.80	
 11.909	 32.701	  4.68135	  3.94702	  1.02538	  3.33333	  1.54886	 -0.13902	  4.99753	703.45697	 23.80	
 11.889	 24.555	  4.67101	  4.06776	  0.91942	  3.09104	  1.74376	 -0.14795	  4.98800	703.60498	 23.80	
 11.890	 16.390	  4.66663	  4.16056	  0.84268	  2.84885	  1.95106	 -0.14949	  4.98778	703.56702	 23.80	
 11.899	  8.217	  4.67141	  4.22235	  0.79317	  2.60663	  2.17320	 -0.14657	  4.99569	703.69598	 23.80	
 11.900	  0.000	  4.66557	  4.24035	  0.77179	  2.34769	  2.41403	 -0.14514	  4.98913	703.53302	 23.80	
 11.899	 -8.217	  4.66475	  4.21910	  0.78444	  2.10470	  2.65987	 -0.14466	  4.99171	703.65997	 23.80	
 11.890	-16.390	  4.66601	  4.16523	  0.82331	  1.87176	  2.90263	 -0.14521	  4.99430	703.67603	 23.80	
 11.889	-24.555	  4.65672	  4.06762	  0.88544	  1.64710	  3.14047	 -0.14339	  4.98837	703.68201	 23.80	
 11.909	-32.701	  4.65552	  3.94050	  0.97447	  1.45039	  3.36582	 -0.14374	  4.98813	703.68201	 23.80	
 11.902	-40.852	  4.65898	  3.78785	  1.09667	  1.27150	  3.58008	 -0.14860	  4.99332	703.74902	 23.80	
 11.894	-49.133	  4.66270	  3.59658	  1.24815	  1.11597	  3.77363	 -0.15313	  4.99474	703.63898	 23.80	
 11.897	-57.268	  4.66083	  3.38852	  1.41487	  0.98208	  3.94030	 -0.16762	  4.99464	703.77802	 23.80	
 11.903	-65.403	  4.66281	  3.15689	  1.61317	  0.87945	  4.07815	 -0.17136	  4.99810	703.66498	 23.80	
 11.893	-73.654	  4.65055	  2.91063	  1.82244	  0.80540	  4.16239	 -0.16962	  4.98155	703.75702	 23.80	
 11.892	-81.845	  4.66095	  2.66881	  2.05625	  0.76002	  4.23540	 -0.17365	  4.99153	703.57202	 23.80	
 11.900	-90.000	  4.65889	  2.41956	  2.29559	  0.74225	  4.25745	 -0.17341	  4.98811	703.69598	 23.80	
 11.892	-98.155	  4.66025	  2.17812	  2.54326	  0.75199	  4.25205	 -0.17006	  4.98780	703.70398	 23.80	
 11.893	-106.346	  4.66188	  1.94742	  2.79515	  0.79094	  4.20559	 -0.16328	  4.98990	703.83301	 23.80	
 11.903	-114.597	  4.66225	  1.73126	  3.03928	  0.86295	  4.12463	 -0.15520	  4.99136	703.73499	 23.80	
 11.897	-122.732	  4.66558	  1.53478	  3.27700	  0.96070	  4.00869	 -0.14671	  4.99447	703.74298	 23.80	
 11.894	-130.867	  4.66255	  1.35764	  3.49520	  1.08402	  3.85461	 -0.14229	  4.99185	703.74298	 23.80	
 11.902	-139.148	  4.66564	  1.20852	  3.69195	  1.24811	  3.67009	 -0.14037	  4.98716	703.77197	 23.80	
 11.909	-147.299	  4.67090	  1.08183	  3.86490	  1.42133	  3.47355	 -0.15025	  4.99539	703.77197	 23.80	
 11.889	-155.445	  4.67531	  0.98795	  3.99967	  1.62129	  3.25193	 -0.15176	  4.99418	703.83698	 23.80	
 11.890	-163.610	  4.68007	  0.91641	  4.10272	  1.85014	  3.01193	 -0.15078	  4.99471	703.57397	 23.80	
 11.899	-171.783	  4.67532	  0.87364	  4.16014	  2.07065	  2.76744	 -0.14514	  4.98427	703.71899	 23.80	
 11.900	180.000	  4.69068	  0.86148	  4.19748	  2.32121	  2.52815	 -0.13772	  4.99297	703.70398	 23.80	
 13.600	180.000	  4.57420	  0.57194	  4.35218	  2.22096	  2.43373	 -0.17897	  4.98998	703.72900	 23.80	
 13.608	-172.853	  4.56847	  0.58379	  4.32866	  1.97989	  2.67325	 -0.18815	  4.99066	703.70099	 23.80	
 13.611	-165.583	  4.56902	  0.61647	  4.27842	  1.74410	  2.92314	 -0.19445	  4.99693	703.71198	 23.80	
 13.601	-158.353	  4.55636	  0.67757	  4.18019	  1.51404	  3.16285	 -0.19602	  4.98961	703.64203	 23.80	
 13.609	-151.210	  4.55214	  0.75835	  4.05588	  1.31333	  3.38629	 -0.19442	  4.98926	703.87299	 23.80	
 13.611	-143.999	  4.55395	  0.86773	  3.90660	  1.12237	  3.60925	 -0.18624	  4.99470	703.76898	 23.80	
 13.601	-136.825	  4.54552	  0.99527	  3.72225	  0.95334	  3.80219	 -0.17826	  4.98982	703.84003	 23.80	
 13.596	-129.640	  4.55103	  1.15358	  3.52071	  0.81486	  3.97890	 -0.17622	  4.99562	703.81598	 23.80	
