FileType=PCF
NHL=14
Date=08/31/17	07:54:35
Facility=APL
Serial=16328-20
Customer=NASA
NP=6
Mach=0.200000
Calibration=1:1
CalPts=490
TstPts=95
PortNumbering=AP Standard
Units=Torr C m/s kg/m^3 deg mm 
Theta[deg]	Phi[deg]	P1[Torr]	P2[Torr]	P3[Torr]	P4[Torr]	P5[Torr]	P6[Torr]	Pt[Torr]	Ps[Abs,Torr]	Ts[C]	
  0.000	  0.000	 19.53775	 10.75839	 10.46658	 10.37018	 10.85906	  0.17544	 19.52435	705.31598	 23.60	
  1.691	128.401	 19.52991	 10.13990	 11.07928	 11.12324	 10.09971	  0.17356	 19.50657	705.53003	 23.60	
  1.692	 77.194	 19.53408	 10.96145	 10.22307	 11.34853	  9.87519	  0.17470	 19.51601	705.50299	 23.60	
  1.699	 26.182	 19.51197	 11.60454	  9.55099	 10.79094	 10.35414	  0.16707	 19.50024	705.44000	 23.60	
  1.699	-26.182	 19.52354	 11.60623	  9.55220	  9.91629	 11.23981	  0.15753	 19.51421	705.39502	 23.60	
  1.692	-77.194	 19.53599	 10.95200	 10.19731	  9.42812	 11.78097	  0.15678	 19.51750	705.29999	 23.60	
  1.691	-128.401	 19.51963	 10.12965	 11.05966	  9.58388	 11.61815	  0.15788	 19.51040	705.38202	 23.60	
  1.700	180.000	 19.52273	  9.78462	 11.45594	 10.32813	 10.86634	  0.16694	 19.51258	705.38501	 23.50	
  3.400	180.000	 19.47956	  8.81233	 12.35014	 10.22787	 10.81573	  0.13083	 19.48828	705.31598	 23.60	
  3.388	-152.325	 19.48284	  9.02122	 12.09998	  9.37442	 11.69624	  0.12385	 19.50162	705.25702	 23.60	
  3.397	-124.529	 19.47426	  9.59213	 11.44669	  8.70692	 12.37072	  0.11296	 19.49245	705.26398	 23.60	
  3.399	-96.763	 19.49698	 10.43228	 10.53945	  8.41302	 12.69448	  0.07766	 19.51587	705.34003	 23.60	
  3.394	-69.283	 19.47809	 11.30818	  9.63638	  8.53370	 12.54162	  0.09634	 19.50257	705.29901	 23.60	
  3.400	-41.398	 19.48157	 12.11201	  8.94091	  9.06543	 11.94854	  0.09315	 19.50750	705.36499	 23.60	
  3.401	-14.021	 19.48577	 12.53440	  8.54888	  9.83169	 11.13880	  0.09643	 19.50792	705.47198	 23.60	
  3.401	 14.021	 19.47889	 12.55654	  8.53134	 10.75411	 10.20566	  0.11939	 19.50298	705.34698	 23.60	
  3.400	 41.398	 19.48898	 12.10355	  8.94920	 11.60500	  9.46497	  0.12253	 19.51118	705.37097	 23.50	
  3.394	 69.283	 19.47099	 11.30819	  9.69893	 12.15065	  8.95972	  0.13018	 19.48794	705.26001	 23.50	
  3.399	 96.763	 19.50006	 10.41482	 10.60661	 12.27641	  8.89447	  0.12903	 19.51119	705.21802	 23.50	
  3.397	124.529	 19.48267	  9.59602	 11.50054	 11.90670	  9.23378	  0.13416	 19.49124	705.40900	 23.50	
  3.388	152.325	 19.48934	  9.03487	 12.12022	 11.17024	  9.93069	  0.13170	 19.50074	705.47400	 23.50	
  5.099	161.165	 19.40358	  7.92652	 13.07099	 11.06870	  9.76794	  0.03399	 19.50334	705.48798	 23.50	
  5.109	142.013	 19.39983	  8.32285	 12.62162	 11.95213	  8.95918	  0.03107	 19.50034	705.27502	 23.60	
  5.095	123.033	 19.43022	  9.01214	 11.87807	 12.67468	  8.36199	  0.05759	 19.52850	705.34998	 23.60	
  5.105	104.191	 19.39852	  9.81884	 10.94772	 13.06644	  8.01989	  0.02674	 19.49361	705.27802	 23.60	
  5.093	 85.207	 19.39620	 10.71079	 10.00449	 13.17133	  7.90516	  0.02325	 19.49571	705.24701	 23.60	
  5.104	 66.290	 19.41705	 11.66089	  9.10151	 12.94994	  8.09935	  0.03808	 19.52568	705.19800	 23.60	
  5.094	 47.331	 19.40105	 12.49475	  8.41463	 12.37428	  8.51372	  0.02159	 19.51616	705.26099	 23.50	
  5.089	 28.397	 19.37399	 13.09650	  7.83691	 11.55895	  9.16257	  0.01265	 19.48801	705.26398	 23.50	
  5.096	  9.576	 19.35509	 13.43536	  7.48833	 10.61871	  9.98365	  0.00733	 19.48232	705.29999	 23.50	
  5.096	 -9.576	 19.37081	 13.44990	  7.47742	  9.66810	 10.95415	 -0.01292	 19.49776	705.31097	 23.50	
  5.089	-28.397	 19.38834	 13.13441	  7.82342	  8.82407	 11.88247	 -0.01233	 19.52039	705.31702	 23.50	
  5.094	-47.331	 19.38946	 12.51517	  8.32052	  8.09200	 12.68182	 -0.03209	 19.51580	705.41998	 23.50	
  5.104	-66.290	 19.36780	 11.66025	  8.96737	  7.56719	 13.26712	 -0.04777	 19.50115	705.26801	 23.50	
  5.093	-85.207	 19.39598	 10.72450	  9.86289	  7.32791	 13.58151	 -0.02578	 19.52337	705.34003	 23.50	
  5.105	-104.191	 19.38382	  9.81579	 10.83556	  7.38082	 13.51613	 -0.02652	 19.51018	705.18402	 23.50	
  5.095	-123.033	 19.38225	  8.97949	 11.76499	  7.75393	 13.13480	 -0.00518	 19.50496	705.10797	 23.50	
  5.109	-142.013	 19.37971	  8.33879	 12.52778	  8.34753	 12.48984	  0.01229	 19.50666	705.18103	 23.50	
  5.099	-161.165	 19.37488	  7.90442	 13.04676	  9.17866	 11.62576	  0.01125	 19.49558	705.24902	 23.50	
  5.100	180.000	 19.38444	  7.77825	 13.22161	 10.08086	 10.70056	  0.02007	 19.49355	705.32202	 23.50	
  6.800	180.000	 19.23003	  6.75640	 14.10569	  9.85645	 10.50772	 -0.08168	 19.49420	705.31598	 23.50	
  6.796	-166.229	 19.21447	  6.81318	 13.96264	  8.95071	 11.44669	 -0.10036	 19.50683	705.34698	 23.50	
  6.808	-152.311	 19.20793	  7.07412	 13.58006	  8.10922	 12.34000	 -0.10211	 19.50303	705.18402	 23.40	
  6.795	-138.383	 19.19844	  7.52692	 12.95677	  7.34335	 13.13726	 -0.10402	 19.49215	705.15100	 23.40	
  6.792	-124.591	 19.20506	  8.17944	 12.18427	  6.76497	 13.78589	 -0.12395	 19.51144	705.27197	 23.40	
  6.787	-110.754	 19.16989	  8.95219	 11.26312	  6.38588	 14.18530	 -0.15248	 19.47202	705.14301	 23.40	
  6.800	-96.985	 19.18409	  9.81161	 10.33273	  6.19890	 14.42901	 -0.17280	 19.50330	705.29102	 23.40	
  6.800	-83.015	 19.17395	 10.72194	  9.37336	  6.22108	 14.36858	 -0.18680	 19.48317	705.16498	 23.40	
  6.787	-69.246	 19.18436	 11.66171	  8.56832	  6.38613	 14.10441	 -0.19700	 19.50637	705.34198	 23.40	
  6.792	-55.409	 19.20120	 12.55677	  7.84826	  6.78163	 13.63775	 -0.18039	 19.52056	705.30798	 23.40	
  6.795	-41.617	 19.15521	 13.27806	  7.22157	  7.39237	 12.90939	 -0.16438	 19.47799	705.34698	 23.40	
  6.808	-27.689	 19.18619	 13.88786	  6.75187	  8.18447	 12.07101	 -0.14625	 19.49477	705.30200	 23.40	
  6.796	-13.771	 19.18881	 14.22616	  6.43001	  9.04545	 11.15110	 -0.13568	 19.49980	705.33899	 23.40	
  6.800	  0.000	 19.18983	 14.34684	  6.36400	  9.94405	 10.22317	 -0.12853	 19.50136	705.38098	 23.40	
  6.796	 13.771	 19.18969	 14.21790	  6.47640	 10.89986	  9.29801	 -0.12043	 19.50106	705.27802	 23.40	
  6.808	 27.689	 19.20513	 13.87437	  6.83033	 11.83307	  8.51972	 -0.12047	 19.50683	705.32599	 23.40	
  6.795	 41.617	 19.21478	 13.29549	  7.36266	 12.65088	  7.90724	 -0.09508	 19.51603	705.29999	 23.40	
  6.792	 55.409	 19.21072	 12.53114	  8.02320	 13.33430	  7.36699	 -0.08842	 19.49929	705.27802	 23.40	
  6.787	 69.246	 19.25883	 11.67549	  8.74604	 13.83411	  7.03937	 -0.10187	 19.54730	705.20502	 23.40	
  6.800	 83.015	 19.21511	 10.72390	  9.53951	 14.04730	  6.84443	 -0.10553	 19.49781	705.38202	 23.40	
  6.800	 96.985	 19.24178	  9.81528	 10.50818	 14.05674	  6.88897	 -0.11319	 19.51876	705.28497	 23.40	
  6.787	110.754	 19.24147	  8.96205	 11.44093	 13.77046	  7.13332	 -0.10726	 19.49858	705.18201	 23.40	
  6.792	124.591	 19.23833	  8.17857	 12.31840	 13.29469	  7.50356	 -0.08235	 19.50020	705.11200	 23.40	
  6.795	138.383	 19.23134	  7.57087	 13.05299	 12.58999	  8.06503	 -0.08165	 19.48599	705.20099	 23.40	
  6.808	152.311	 19.24384	  7.10819	 13.64372	 11.75773	  8.74080	 -0.09006	 19.50349	705.13898	 23.40	
  6.796	166.229	 19.22522	  6.82615	 13.99422	 10.79487	  9.61657	 -0.08763	 19.49453	705.05499	 23.40	
  8.491	168.704	 19.01540	  5.76275	 14.88838	 10.56993	  9.34438	 -0.23590	 19.51094	705.21301	 23.40	
  8.502	157.493	 19.02183	  5.96457	 14.57847	 11.53151	  8.48291	 -0.23379	 19.50879	705.18799	 23.40	
  8.494	146.194	 18.99043	  6.31218	 14.04707	 12.43795	  7.74120	 -0.22464	 19.47856	705.06598	 23.40	
  8.495	135.039	 19.01135	  6.83388	 13.43350	 13.28473	  7.09014	 -0.22678	 19.50743	705.04401	 23.40	
  8.487	123.723	 19.00787	  7.45696	 12.61653	 13.96863	  6.53262	 -0.24584	 19.50240	705.18201	 23.40	
  8.492	112.575	 19.00639	  8.22065	 11.73116	 14.47170	  6.13939	 -0.27272	 19.50236	705.16803	 23.40	
  8.510	101.220	 19.00149	  9.10949	 10.76243	 14.79025	  5.88891	 -0.27416	 19.50601	705.22998	 23.40	
  8.500	 90.000	 18.99762	 10.01310	  9.80025	 14.88630	  5.78765	 -0.25792	 19.50815	705.16699	 23.40	
  8.510	 78.780	 18.96474	 10.93458	  8.91583	 14.77699	  5.81437	 -0.24929	 19.47783	705.18799	 23.40	
  8.492	 67.425	 18.98030	 11.91201	  8.07871	 14.49224	  6.02490	 -0.23800	 19.50217	705.09399	 23.40	
  8.487	 56.277	 18.97446	 12.80420	  7.29851	 14.01155	  6.35096	 -0.23255	 19.50751	705.29401	 23.40	
  8.495	 44.961	 18.95614	 13.60517	  6.62659	 13.33153	  6.86443	 -0.23619	 19.49412	705.16803	 23.40	
  8.494	 33.806	 18.93892	 14.23507	  6.08262	 12.52755	  7.48606	 -0.25937	 19.48077	705.14697	 23.40	
  8.502	 22.507	 18.91770	 14.72851	  5.60498	 11.61086	  8.22431	 -0.26943	 19.46522	705.15900	 23.40	
  8.491	 11.296	 18.93654	 15.07385	  5.34914	 10.66155	  8.97943	 -0.28296	 19.49017	705.10602	 23.40	
  8.500	  0.000	 18.93395	 15.18505	  5.24228	  9.71377	  9.92308	 -0.28373	 19.50125	705.14697	 23.40	
  8.491	-11.296	 18.92324	 15.07831	  5.23314	  8.78876	 10.86931	 -0.28825	 19.49079	705.20898	 23.30	
  8.502	-22.507	 18.90664	 14.76160	  5.54178	  7.88188	 11.81650	 -0.29276	 19.48392	705.19000	 23.30	
  8.494	-33.806	 18.92089	 14.27240	  5.89766	  7.05100	 12.75204	 -0.29699	 19.49487	705.23199	 23.30	
  8.495	-44.961	 18.91952	 13.60883	  6.43006	  6.36107	 13.55362	 -0.32743	 19.49317	705.28601	 23.30	
  8.487	-56.277	 18.93529	 12.83672	  7.08274	  5.81347	 14.22274	 -0.35292	 19.50459	705.21198	 23.30	
  8.492	-67.425	 18.93259	 11.93552	  7.83225	  5.37391	 14.76280	 -0.38141	 19.50898	705.12201	 23.30	
  8.510	-78.780	 18.93246	 10.95754	  8.70848	  5.11550	 15.14769	 -0.38083	 19.50400	705.11200	 23.30	
  8.500	-90.000	 18.94459	 10.03126	  9.54442	  5.07503	 15.26448	 -0.36583	 19.51101	705.28497	 23.30	
  8.510	-101.220	 18.94708	  9.13311	 10.51130	  5.10608	 15.21489	 -0.33281	 19.50937	705.23798	 23.30	
  8.492	-112.575	 18.93401	  8.23790	 11.48502	  5.34708	 14.92528	 -0.32225	 19.49344	705.30603	 23.30	
  8.487	-123.723	 18.92710	  7.47186	 12.39500	  5.73514	 14.42889	 -0.28362	 19.49228	705.12903	 23.30	
  8.495	-135.039	 18.92731	  6.82717	 13.22390	  6.24047	 13.81887	 -0.25447	 19.49094	705.13702	 23.30	
  8.494	-146.194	 18.95212	  6.31809	 13.93286	  6.91418	 13.07554	 -0.25499	 19.51112	705.33301	 23.30	
  8.502	-157.493	 18.96150	  5.92298	 14.47024	  7.77533	 12.17188	 -0.25874	 19.51020	705.13898	 23.30	
  8.491	-168.704	 18.95880	  5.72702	 14.79675	  8.66022	 11.24074	 -0.25912	 19.48699	705.11902	 23.30	
  8.500	180.000	 18.97290	  5.66296	 14.94193	  9.59282	 10.29311	 -0.23632	 19.49094	705.15997	 23.30	
 10.200	180.000	 18.68739	  4.54674	 15.72465	  9.28948	 10.03186	 -0.39977	 19.51132	705.23199	 23.30	
 10.191	-170.497	 18.64379	  4.58067	 15.61083	  8.33396	 10.97608	 -0.41718	 19.49170	705.22601	 23.30	
 10.210	-161.034	 18.61580	  4.74842	 15.26898	  7.40810	 11.92250	 -0.42903	 19.48033	705.22302	 23.30	
 10.194	-151.526	 18.61563	  5.05841	 14.80752	  6.54184	 12.86549	 -0.42009	 19.49856	705.12799	 23.30	
 10.190	-142.105	 18.61575	  5.50535	 14.20744	  5.79086	 13.70422	 -0.40386	 19.50790	705.16498	 23.30	
 10.215	-132.646	 18.61986	  6.06077	 13.46547	  5.13870	 14.45307	 -0.40566	 19.51606	705.23999	 23.30	
 10.203	-123.092	 18.60695	  6.72271	 12.59667	  4.63130	 15.09485	 -0.43906	 19.50396	705.25201	 23.30	
 10.192	-113.678	 18.60927	  7.45998	 11.66528	  4.25369	 15.54295	 -0.47589	 19.48960	705.22302	 23.30	
 10.208	-104.249	 18.61235	  8.29799	 10.69965	  3.97554	 15.87097	 -0.51201	 19.51182	705.18799	 23.30	
 10.210	-94.801	 18.58855	  9.22291	  9.68925	  3.84378	 15.98527	 -0.53238	 19.49621	705.25702	 23.30	
 10.210	-85.199	 18.61423	 10.18420	  8.81371	  3.86371	 15.96998	 -0.55315	 19.51782	705.27698	 23.30	
 10.208	-75.751	 18.58260	 11.15520	  7.90299	  4.00252	 15.76014	 -0.56076	 19.50066	705.21301	 23.30	
 10.192	-66.322	 18.57401	 12.09676	  7.04793	  4.30492	 15.36760	 -0.55679	 19.48349	705.16699	 23.30	
 10.203	-56.908	 18.56323	 13.00344	  6.23076	  4.72117	 14.81918	 -0.53621	 19.48267	705.27698	 23.30	
 10.215	-47.354	 18.57762	 13.84593	  5.55278	  5.28715	 14.15412	 -0.48503	 19.50039	705.22601	 23.30	
 10.190	-37.895	 18.58818	 14.56177	  4.96063	  5.94733	 13.37589	 -0.45905	 19.50796	705.23602	 23.30	
 10.194	-28.474	 18.60308	 15.15020	  4.60339	  6.71003	 12.50677	 -0.44522	 19.51135	705.16498	 23.30	
 10.210	-18.966	 18.58887	 15.56558	  4.23644	  7.53153	 11.53620	 -0.45271	 19.49398	705.13098	 23.30	
 10.191	 -9.503	 18.60228	 15.81119	  4.09000	  8.47230	 10.57280	 -0.45549	 19.50215	705.13397	 23.30	
 10.200	  0.000	 18.60932	 15.89171	  4.05480	  9.42855	  9.59986	 -0.45624	 19.49751	705.26001	 23.30	
 10.191	  9.503	 18.63147	 15.83396	  4.14586	 10.40041	  8.67420	 -0.44524	 19.52332	705.21600	 23.30	
 10.210	 18.966	 18.62092	 15.57866	  4.34895	 11.35679	  7.87899	 -0.45521	 19.51079	705.23798	 23.30	
 10.194	 28.474	 18.62041	 15.11652	  4.72300	 12.31339	  7.09499	 -0.44056	 19.50135	705.35101	 23.30	
 10.190	 37.895	 18.61229	 14.53840	  5.21376	 13.19046	  6.36610	 -0.41559	 19.49270	705.21802	 23.30	
 10.215	 47.354	 18.60704	 13.81890	  5.80773	 13.96118	  5.75655	 -0.39123	 19.47777	705.06403	 23.30	
 10.203	 56.908	 18.65794	 13.01622	  6.55932	 14.63435	  5.29820	 -0.38889	 19.50619	705.20099	 23.30	
 10.192	 66.322	 18.64841	 12.09090	  7.33853	 15.12384	  4.94431	 -0.39731	 19.49682	705.16803	 23.30	
 10.208	 75.751	 18.65832	 11.14402	  8.18300	 15.47982	  4.71782	 -0.41154	 19.50275	705.26398	 23.20	
 10.210	 85.199	 18.69709	 10.20881	  9.01846	 15.67229	  4.64091	 -0.44549	 19.52852	705.21503	 23.30	
 10.210	 94.801	 18.65369	  9.25015	  9.94441	 15.63136	  4.64587	 -0.46936	 19.47943	705.24902	 23.30	
 10.208	104.249	 18.67652	  8.32097	 10.94567	 15.45205	  4.83979	 -0.47453	 19.49022	705.16199	 23.30	
 10.192	113.678	 18.71248	  7.52167	 11.93150	 15.10872	  5.14138	 -0.46423	 19.51221	705.24902	 23.30	
 10.203	123.092	 18.69958	  6.76185	 12.83855	 14.58514	  5.52638	 -0.43563	 19.50204	705.17401	 23.20	
 10.215	132.646	 18.69739	  6.07877	 13.67200	 13.91902	  6.05133	 -0.39954	 19.49997	705.34998	 23.30	
 10.190	142.105	 18.67591	  5.52541	 14.35088	 13.08128	  6.71322	 -0.38877	 19.46503	705.22302	 23.30	
 10.194	151.526	 18.72945	  5.12167	 14.99596	 12.20683	  7.43893	 -0.40411	 19.51519	705.26801	 23.30	
 10.210	161.034	 18.70678	  4.81477	 15.40825	 11.25242	  8.16636	 -0.40619	 19.51083	705.21802	 23.30	
 10.191	170.497	 18.70745	  4.62446	 15.64979	 10.25243	  9.08024	 -0.40699	 19.52172	705.15997	 23.30	
 11.899	171.783	 18.30669	  3.44975	 16.31659	  9.91884	  8.72541	 -0.57176	 19.50655	705.23602	 23.30	
 11.890	163.610	 18.33097	  3.61780	 16.12086	 10.88573	  7.86219	 -0.55771	 19.50620	705.33698	 23.30	
 11.889	155.445	 18.33685	  3.90977	 15.78041	 11.87382	  7.04045	 -0.54999	 19.50174	705.27802	 23.30	
 11.909	147.299	 18.31089	  4.22044	 15.28546	 12.79672	  6.25755	 -0.54252	 19.47653	705.36200	 23.30	
 11.902	139.148	 18.35038	  4.71913	 14.63099	 13.68560	  5.61454	 -0.54640	 19.51390	705.17603	 23.30	
 11.894	130.867	 18.33300	  5.31316	 13.86767	 14.45119	  4.99506	 -0.56599	 19.49592	705.23297	 23.20	
 11.897	122.732	 18.29772	  5.97286	 13.01290	 15.09565	  4.49123	 -0.61171	 19.47581	705.37500	 23.20	
 11.903	114.597	 18.29796	  6.72464	 12.09874	 15.63878	  4.08034	 -0.63701	 19.47895	705.24902	 23.20	
 11.893	106.346	 18.32795	  7.56209	 11.14204	 16.06129	  3.79618	 -0.65693	 19.52235	705.19598	 23.20	
 11.892	 98.155	 18.28444	  8.39578	 10.13340	 16.25930	  3.57725	 -0.66427	 19.48000	705.28003	 23.20	
 11.900	 90.000	 18.28936	  9.37660	  9.15223	 16.34821	  3.49859	 -0.64825	 19.49152	705.07800	 23.20	
 11.892	 81.845	 18.28295	 10.30501	  8.29296	 16.29308	  3.47497	 -0.60316	 19.49818	705.11499	 23.20	
 11.893	 73.654	 18.28097	 11.28090	  7.42302	 16.08099	  3.59393	 -0.57079	 19.50811	705.25403	 23.20	
 11.903	 65.403	 18.26746	 12.25801	  6.55375	 15.68718	  3.88739	 -0.54534	 19.49682	705.30902	 23.30	
 11.897	 57.268	 18.27184	 13.17751	  5.75011	 15.17300	  4.25942	 -0.53150	 19.51052	705.19299	 23.20	
 11.894	 49.133	 18.25603	 14.01277	  5.00825	 14.51927	  4.72379	 -0.53197	 19.50514	705.34998	 23.20	
 11.902	 40.852	 18.26277	 14.75712	  4.34266	 13.77469	  5.30122	 -0.55306	 19.51837	705.21503	 23.20	
 11.909	 32.701	 18.25528	 15.40378	  3.81075	 12.93972	  5.95500	 -0.59394	 19.53224	705.33002	 23.30	
 11.889	 24.555	 18.19085	 15.86341	  3.39636	 11.95864	  6.68877	 -0.61360	 19.46953	705.33398	 23.20	
 11.890	 16.390	 18.21143	 16.23991	  3.13064	 11.01728	  7.50578	 -0.61213	 19.49252	705.23602	 23.20	
 11.899	  8.217	 18.19043	 16.47479	  2.91918	 10.05023	  8.31835	 -0.61586	 19.48324	705.21600	 23.20	
 11.900	  0.000	 18.19554	 16.55784	  2.85071	  9.08621	  9.21206	 -0.60410	 19.49902	705.16699	 23.20	
 11.899	 -8.217	 18.18656	 16.48583	  2.90371	  8.10150	 10.17458	 -0.60191	 19.49399	705.21301	 23.20	
 11.890	-16.390	 18.17617	 16.23927	  3.06594	  7.18196	 11.15375	 -0.59168	 19.47799	705.21503	 23.20	
 11.889	-24.555	 18.18975	 15.92279	  3.30150	  6.34602	 12.12286	 -0.59022	 19.50406	705.21503	 23.20	
 11.909	-32.701	 18.15351	 15.37807	  3.58328	  5.52759	 13.04686	 -0.58675	 19.47219	705.26099	 23.20	
 11.902	-40.852	 18.16922	 14.75329	  4.08389	  4.85392	 13.88604	 -0.61313	 19.47922	705.06702	 23.20	
 11.894	-49.133	 18.19754	 14.01505	  4.69113	  4.23879	 14.67652	 -0.65566	 19.50885	705.15100	 23.20	
 11.897	-57.268	 18.17593	 13.18133	  5.39185	  3.71765	 15.32533	 -0.68538	 19.49692	705.09802	 23.20	
 11.903	-65.403	 18.15503	 12.25287	  6.21300	  3.23498	 15.85763	 -0.69809	 19.47548	705.07397	 23.20	
 11.893	-73.654	 18.18807	 11.31971	  7.09212	  2.91285	 16.25126	 -0.70714	 19.49188	705.16498	 23.20	
 11.892	-81.845	 18.18675	 10.33620	  7.95872	  2.75559	 16.48310	 -0.71271	 19.48000	705.26398	 23.20	
 11.900	-90.000	 18.20457	  9.39410	  8.90401	  2.68759	 16.61523	 -0.70636	 19.50265	705.24103	 23.20	
 11.892	-98.155	 18.21466	  8.43865	  9.80479	  2.75850	 16.56179	 -0.69541	 19.49289	705.11499	 23.20	
 11.893	-106.346	 18.20190	  7.52815	 10.79022	  2.89591	 16.38217	 -0.66269	 19.49406	705.21503	 23.20	
 11.903	-114.597	 18.20865	  6.72472	 11.77346	  3.16106	 16.07583	 -0.63381	 19.50243	705.02899	 23.20	
 11.897	-122.732	 18.21463	  5.95578	 12.71984	  3.53567	 15.63168	 -0.60770	 19.51142	705.15002	 23.20	
 11.894	-130.867	 18.21572	  5.30005	 13.57902	  4.03777	 14.99610	 -0.57988	 19.50134	705.20502	 23.20	
 11.902	-139.148	 18.19469	  4.67759	 14.37416	  4.68496	 14.26993	 -0.57374	 19.48619	705.22302	 23.20	
 11.909	-147.299	 18.21116	  4.19567	 15.04589	  5.38446	 13.47447	 -0.59771	 19.50102	705.26001	 23.20	
 11.889	-155.445	 18.23291	  3.83003	 15.60551	  6.18585	 12.59180	 -0.61799	 19.49995	705.22302	 23.20	
 11.890	-163.610	 18.22592	  3.56147	 16.00830	  7.03482	 11.62891	 -0.61636	 19.48545	705.29498	 23.20	
 11.899	-171.783	 18.27394	  3.42657	 16.27147	  7.96195	 10.67935	 -0.60490	 19.50879	705.16498	 23.20	
 11.900	180.000	 18.26901	  3.37156	 16.35017	  8.92272	  9.70788	 -0.58964	 19.48905	705.31702	 23.20	
 13.600	180.000	 17.85940	  2.24962	 16.99720	  8.54532	  9.35467	 -0.75347	 19.51348	705.18500	 23.20	
 13.608	-172.853	 17.83111	  2.26634	 16.90774	  7.54593	 10.30362	 -0.76269	 19.51004	705.21198	 23.20	
 13.611	-165.583	 17.79286	  2.37437	 16.67973	  6.62754	 11.26667	 -0.78219	 19.50257	705.08600	 23.20	
 13.601	-158.353	 17.77679	  2.57689	 16.31694	  5.74037	 12.24933	 -0.78381	 19.51639	705.29102	 23.20	
 13.609	-151.210	 17.76740	  2.92194	 15.83105	  4.95591	 13.16059	 -0.76702	 19.51350	705.16199	 23.20	
 13.611	-143.999	 17.75227	  3.35167	 15.20743	  4.25603	 14.02219	 -0.73944	 19.50997	705.18402	 23.20	
 13.601	-136.825	 17.72515	  3.86723	 14.46538	  3.57273	 14.78003	 -0.71424	 19.47743	705.16199	 23.20	
 13.596	-129.640	 17.73590	  4.46913	 13.66412	  2.92587	 15.48712	 -0.71121	 19.49051	705.16498	 23.20	
