FileType=PCF
NHL=14
Date=08/28/17	10:03:21
Facility=APL
Serial=16328-10
Customer=NASA
NP=6
Mach=0.150000
Calibration=1:1
CalPts=490
TstPts=95
PortNumbering=AP Standard
Units=Torr C m/s kg/m^3 deg mm 
Theta[deg]	Phi[deg]	P1[Torr]	P2[Torr]	P3[Torr]	P4[Torr]	P5[Torr]	P6[Torr]	Pt[Torr]	Ps[Abs,Torr]	Ts[C]	
  0.000	  0.000	 11.12168	  6.11029	  6.08811	  5.99756	  6.27361	  0.07711	 11.11099	707.70599	 23.70	
  1.691	128.401	 11.10765	  5.76364	  6.40411	  6.40278	  5.83501	  0.07559	 11.09503	707.89801	 23.70	
  1.692	 77.194	 11.10872	  6.22038	  5.94948	  6.51244	  5.73552	  0.07522	 11.10012	707.83197	 23.70	
  1.699	 26.182	 11.11051	  6.58466	  5.59186	  6.22685	  6.01495	  0.07371	 11.10306	707.76703	 23.70	
  1.699	-26.182	 11.10283	  6.57060	  5.58829	  5.74418	  6.48293	  0.06719	 11.09538	707.78003	 23.70	
  1.692	-77.194	 11.12230	  6.21107	  5.95562	  5.47805	  6.77227	  0.06494	 11.11476	707.73700	 23.70	
  1.691	-128.401	 11.13864	  5.76774	  6.41808	  5.57811	  6.68723	  0.06913	 11.13064	707.74200	 23.70	
  1.700	180.000	 11.12954	  5.56624	  6.62362	  5.98858	  6.26357	  0.07177	 11.11605	707.85303	 23.70	
  3.400	180.000	 11.10964	  5.00979	  7.13210	  5.93560	  6.21445	  0.04839	 11.11525	707.73499	 23.70	
  3.388	-152.325	 11.08935	  5.11065	  6.98701	  5.44240	  6.69814	  0.04463	 11.09810	707.76001	 23.70	
  3.397	-124.529	 11.09164	  5.42398	  6.63373	  5.07876	  7.09324	  0.04000	 11.10423	708.53601	 23.70	
  3.399	-96.763	 11.08980	  5.89280	  6.12763	  4.90563	  7.27046	  0.02735	 11.10626	707.76501	 23.70	
  3.394	-69.283	 11.11470	  6.42147	  5.64718	  4.97816	  7.22959	  0.03109	 11.12871	707.73499	 23.70	
  3.400	-41.398	 11.09880	  6.85349	  5.22550	  5.25379	  6.90167	  0.02128	 11.11053	707.75403	 23.70	
  3.401	-14.021	 11.08238	  7.10490	  5.00606	  5.67468	  6.45500	  0.04033	 11.09074	707.77698	 23.70	
  3.401	 14.021	 11.11173	  7.13490	  5.02489	  6.21573	  5.94817	  0.04859	 11.12180	707.79797	 23.70	
  3.400	 41.398	 11.10508	  6.88480	  5.24821	  6.66461	  5.52198	  0.05217	 11.11354	707.69800	 23.70	
  3.394	 69.283	 11.10145	  6.45681	  5.64355	  6.94889	  5.24817	  0.04851	 11.10657	707.63898	 23.70	
  3.399	 96.763	 11.14498	  5.94727	  6.18709	  7.04160	  5.20822	  0.04601	 11.14472	707.66302	 23.70	
  3.397	124.529	 11.13029	  5.48167	  6.65213	  6.85131	  5.36645	  0.04574	 11.13597	707.78497	 23.70	
  3.388	152.325	 11.08637	  5.13293	  6.96920	  6.44041	  5.70414	  0.04809	 11.09208	707.61902	 23.70	
  5.099	161.165	 11.07863	  4.49612	  7.54999	  6.39339	  5.60775	  0.00642	 11.13227	708.28900	 23.70	
  5.109	142.013	 11.06103	  4.73846	  7.26655	  6.88566	  5.14711	  0.00352	 11.11360	707.76202	 23.70	
  5.095	123.033	 11.05077	  5.11003	  6.83948	  7.24811	  4.82223	  0.00326	 11.09827	707.80200	 23.70	
  5.105	104.191	 11.05136	  5.58474	  6.33262	  7.48836	  4.62180	  0.00008	 11.10195	707.76001	 23.70	
  5.093	 85.207	 11.05821	  6.11988	  5.80242	  7.53409	  4.59083	  0.00567	 11.11013	707.67499	 23.70	
  5.104	 66.290	 11.07233	  6.65948	  5.30429	  7.40454	  4.71419	  0.01041	 11.12442	707.68298	 23.70	
  5.094	 47.331	 11.06035	  7.11661	  4.87559	  7.08247	  4.97556	  0.00936	 11.11558	707.74597	 23.70	
  5.089	 28.397	 11.05717	  7.45936	  4.56985	  6.64380	  5.36586	  0.00195	 11.11704	707.82098	 23.70	
  5.096	  9.576	 11.03930	  7.62849	  4.39770	  6.11809	  5.84130	 -0.00868	 11.10021	707.73499	 23.70	
  5.096	 -9.576	 11.05507	  7.62925	  4.39880	  5.57695	  6.39594	 -0.01547	 11.11967	707.84601	 23.70	
  5.089	-28.397	 11.06280	  7.43811	  4.55939	  5.09799	  6.90704	 -0.02739	 11.12871	707.73700	 23.70	
  5.094	-47.331	 11.04034	  7.06815	  4.84931	  4.68457	  7.33737	 -0.03194	 11.11216	707.79102	 23.70	
  5.104	-66.290	 11.03135	  6.59035	  5.26846	  4.40198	  7.64830	 -0.03728	 11.10556	707.79901	 23.70	
  5.093	-85.207	 11.03727	  6.06280	  5.77643	  4.28216	  7.79028	 -0.03476	 11.10693	707.74200	 23.70	
  5.105	-104.191	 11.04294	  5.52650	  6.32727	  4.31931	  7.75163	 -0.02362	 11.11682	707.76501	 23.70	
  5.095	-123.033	 11.04273	  5.05811	  6.83284	  4.52030	  7.51935	 -0.01057	 11.11147	707.67999	 23.70	
  5.109	-142.013	 11.03930	  4.68903	  7.25015	  4.86122	  7.12932	 -0.00470	 11.10627	707.65900	 23.80	
  5.099	-161.165	 11.06475	  4.47074	  7.54293	  5.32952	  6.65056	  0.00224	 11.12625	707.78998	 23.70	
  5.100	180.000	 11.07001	  4.40669	  7.63764	  5.84497	  6.13070	  0.00430	 11.12359	707.70801	 23.70	
  6.800	180.000	 10.96147	  3.76832	  8.11456	  5.73123	  6.00381	 -0.06355	 11.11147	707.80499	 23.80	
  6.796	-166.229	 10.95887	  3.81021	  8.04591	  5.21634	  6.52682	 -0.05898	 11.11168	707.90100	 23.80	
  6.808	-152.311	 10.96400	  3.97045	  7.84956	  4.73977	  7.04055	 -0.06003	 11.12449	707.76501	 23.70	
  6.795	-138.383	 10.93605	  4.23113	  7.50626	  4.31380	  7.48588	 -0.07228	 11.09920	707.80103	 23.70	
  6.792	-124.591	 10.95131	  4.60159	  7.09621	  3.99134	  7.87441	 -0.07863	 11.12105	708.48199	 23.70	
  6.787	-110.754	 10.93804	  5.03863	  6.59959	  3.76610	  8.12793	 -0.08861	 11.11440	707.83301	 23.70	
  6.800	-96.985	 10.93894	  5.53700	  6.07722	  3.65226	  8.26464	 -0.10454	 11.11665	707.74298	 23.70	
  6.800	-83.015	 10.95011	  6.08138	  5.54405	  3.65709	  8.27124	 -0.12429	 11.12365	707.79303	 23.80	
  6.787	-69.246	 10.95512	  6.60875	  5.04930	  3.77583	  8.14053	 -0.12196	 11.12941	707.78003	 23.80	
  6.792	-55.409	 10.94932	  7.09701	  4.59994	  3.99431	  7.87790	 -0.11819	 11.11984	707.87201	 23.80	
  6.795	-41.617	 10.95522	  7.52698	  4.23534	  4.32471	  7.50918	 -0.10943	 11.12004	707.80701	 23.80	
  6.808	-27.689	 10.95951	  7.86437	  3.95960	  4.74106	  7.05023	 -0.09658	 11.12092	707.88300	 23.80	
  6.796	-13.771	 10.97742	  8.08734	  3.80555	  5.23019	  6.55281	 -0.08323	 11.14045	707.94000	 23.70	
  6.800	  0.000	 10.97725	  8.16457	  3.75168	  5.74672	  6.02753	 -0.07920	 11.13489	707.94598	 23.70	
  6.796	 13.771	 10.95506	  8.08690	  3.80502	  6.27033	  5.49712	 -0.07155	 11.11403	707.83801	 23.70	
  6.808	 27.689	 10.97962	  7.91254	  3.98230	  6.79859	  5.03185	 -0.05885	 11.13460	707.84399	 23.80	
  6.795	 41.617	 10.96745	  7.57983	  4.26161	  7.24470	  4.62656	 -0.05387	 11.11885	707.89398	 23.80	
  6.792	 55.409	 10.95754	  7.15907	  4.62519	  7.60901	  4.30474	 -0.05211	 11.10170	707.93903	 23.80	
  6.787	 69.246	 10.97693	  6.68604	  5.07779	  7.88651	  4.09233	 -0.05396	 11.11800	707.83301	 23.80	
  6.800	 83.015	 10.98989	  6.17223	  5.57592	  8.04021	  3.97943	 -0.06445	 11.13013	707.91901	 23.80	
  6.800	 96.985	 10.98700	  5.63243	  6.10885	  8.03555	  3.97520	 -0.06979	 11.12599	707.84100	 23.80	
  6.787	110.754	 10.97285	  5.12541	  6.61999	  7.88195	  4.08614	 -0.06546	 11.10863	707.91101	 23.80	
  6.792	124.591	 10.98551	  4.68207	  7.11797	  7.62670	  4.30943	 -0.06542	 11.11844	707.81598	 23.80	
  6.795	138.383	 10.98785	  4.31302	  7.53709	  7.24997	  4.62924	 -0.06748	 11.12394	708.22302	 23.80	
  6.808	152.311	 10.97748	  4.01833	  7.85799	  6.79027	  5.02227	 -0.05962	 11.11607	708.44598	 23.80	
  6.796	166.229	 10.96650	  3.83917	  8.04853	  6.27150	  5.48558	 -0.05792	 11.11072	708.13599	 23.80	
  8.491	168.704	 10.83828	  3.17896	  8.51987	  6.14951	  5.33068	 -0.14305	 11.11062	707.76202	 23.80	
  8.502	157.493	 10.85842	  3.32982	  8.37000	  6.69028	  4.84862	 -0.13339	 11.12955	707.95398	 23.80	
  8.494	146.194	 10.86079	  3.57238	  8.09361	  7.19398	  4.41060	 -0.14485	 11.13011	707.83899	 23.80	
  8.495	135.039	 10.86206	  3.88854	  7.73030	  7.64172	  4.02943	 -0.15425	 11.12926	707.80701	 23.80	
  8.487	123.723	 10.85208	  4.28126	  7.27568	  8.00719	  3.71800	 -0.15529	 11.11901	707.87799	 23.80	
  8.492	112.575	 10.86569	  4.73539	  6.78960	  8.28992	  3.50590	 -0.15972	 11.13407	707.88397	 23.80	
  8.510	101.220	 10.85047	  5.23495	  6.24388	  8.45599	  3.36076	 -0.16641	 11.11692	707.86902	 23.80	
  8.500	 90.000	 10.84896	  5.76711	  5.70335	  8.50669	  3.32396	 -0.15796	 11.11829	707.90002	 23.80	
  8.510	 78.780	 10.84210	  6.31030	  5.16746	  8.45055	  3.36539	 -0.14155	 11.11489	707.90100	 23.80	
  8.492	 67.425	 10.82692	  6.83895	  4.65868	  8.26594	  3.49840	 -0.12698	 11.10554	707.88300	 23.80	
  8.487	 56.277	 10.85961	  7.35358	  4.22815	  8.01899	  3.73018	 -0.12686	 11.14073	707.93903	 23.80	
  8.495	 44.961	 10.83344	  7.78247	  3.82567	  7.63255	  4.02774	 -0.13420	 11.12178	707.84100	 23.80	
  8.494	 33.806	 10.81903	  8.13150	  3.51132	  7.17796	  4.40395	 -0.13418	 11.11284	707.93103	 23.80	
  8.502	 22.507	 10.82861	  8.40991	  3.28344	  6.68432	  4.85511	 -0.14295	 11.12653	707.89398	 23.80	
  8.491	 11.296	 10.82056	  8.56043	  3.14581	  6.14961	  5.34290	 -0.15791	 11.11743	707.83301	 23.80	
  8.500	  0.000	 10.81765	  8.61017	  3.08921	  5.59425	  5.87498	 -0.16375	 11.11781	707.91498	 23.80	
  8.491	-11.296	 10.83815	  8.55728	  3.14075	  5.06926	  6.42800	 -0.16310	 11.13807	707.86401	 23.80	
  8.502	-22.507	 10.82170	  8.36847	  3.26472	  4.56081	  6.94498	 -0.17177	 11.12665	708.00201	 23.80	
  8.494	-33.806	 10.80498	  8.06915	  3.48448	  4.09684	  7.43830	 -0.19348	 11.10918	707.93103	 23.80	
  8.495	-44.961	 10.81331	  7.70195	  3.79380	  3.71013	  7.88615	 -0.20375	 11.12024	708.00403	 23.80	
  8.487	-56.277	 10.81052	  7.24404	  4.18547	  3.40590	  8.24087	 -0.21243	 11.11765	707.95099	 23.80	
  8.492	-67.425	 10.82475	  6.75497	  4.63749	  3.18352	  8.52389	 -0.22188	 11.13595	707.83301	 23.80	
  8.510	-78.780	 10.81282	  6.20804	  5.13543	  3.03095	  8.69005	 -0.22910	 11.13177	707.83899	 23.80	
  8.500	-90.000	 10.81543	  5.66005	  5.67402	  2.98619	  8.74600	 -0.21513	 11.13725	707.87799	 23.80	
  8.510	-101.220	 10.80635	  5.12252	  6.21458	  3.02535	  8.68390	 -0.19039	 11.12413	707.65198	 23.80	
  8.492	-112.575	 10.81001	  4.62185	  6.75609	  3.17247	  8.50886	 -0.16605	 11.12582	707.85199	 23.80	
  8.487	-123.723	 10.81100	  4.17966	  7.25132	  3.39795	  8.23629	 -0.16049	 11.12285	707.78003	 23.80	
  8.495	-135.039	 10.79423	  3.78696	  7.68726	  3.69818	  7.86126	 -0.15792	 11.10429	707.75702	 23.80	
  8.494	-146.194	 10.83262	  3.50203	  8.07570	  4.10306	  7.44256	 -0.14485	 11.13163	707.85999	 23.80	
  8.502	-157.493	 10.83049	  3.27870	  8.35133	  4.56065	  6.93175	 -0.13593	 11.12253	707.79303	 23.80	
  8.491	-168.704	 10.82648	  3.15479	  8.50966	  5.05760	  6.40269	 -0.14810	 11.11210	707.73700	 23.80	
  8.500	180.000	 10.83959	  3.11749	  8.58105	  5.59552	  5.86828	 -0.15505	 11.12067	707.80200	 23.80	
 10.200	180.000	 10.68684	  2.46957	  9.01975	  5.43692	  5.70904	 -0.25199	 11.14024	707.70300	 23.80	
 10.191	-170.497	 10.67313	  2.49288	  8.96316	  4.89368	  6.24712	 -0.24827	 11.12955	707.84698	 23.80	
 10.210	-161.034	 10.65016	  2.58988	  8.80319	  4.36852	  6.77449	 -0.22901	 11.11433	707.81500	 23.80	
 10.194	-151.526	 10.64673	  2.77972	  8.55821	  3.88982	  7.30241	 -0.22984	 11.11318	707.91699	 23.80	
 10.190	-142.105	 10.62835	  3.02945	  8.22352	  3.46035	  7.77400	 -0.23303	 11.10450	707.87500	 23.90	
 10.215	-132.646	 10.64490	  3.35066	  7.84849	  3.09977	  8.21682	 -0.24323	 11.13031	707.76001	 23.90	
 10.203	-123.092	 10.64373	  3.74374	  7.38646	  2.79940	  8.58078	 -0.24446	 11.13824	707.88300	 23.90	
 10.192	-113.678	 10.63717	  4.19048	  6.87319	  2.57026	  8.85934	 -0.25052	 11.13567	707.75897	 23.90	
 10.208	-104.249	 10.61454	  4.66675	  6.32712	  2.40664	  9.04249	 -0.27806	 11.11713	707.79901	 23.90	
 10.210	-94.801	 10.63738	  5.20361	  5.78625	  2.33318	  9.15977	 -0.31031	 11.14246	707.85498	 23.90	
 10.210	-85.199	 10.62002	  5.75511	  5.21969	  2.33130	  9.14675	 -0.32767	 11.12549	707.82501	 23.80	
 10.208	-75.751	 10.61240	  6.30076	  4.68754	  2.40738	  9.04295	 -0.33096	 11.11273	707.87799	 23.90	
 10.192	-66.322	 10.62207	  6.83832	  4.20226	  2.57087	  8.85505	 -0.32066	 11.11351	707.79102	 23.90	
 10.203	-56.908	 10.63910	  7.36387	  3.75601	  2.80111	  8.58972	 -0.30888	 11.12556	707.84900	 23.90	
 10.215	-47.354	 10.64564	  7.84254	  3.35872	  3.10336	  8.23353	 -0.29409	 11.13506	707.86298	 23.90	
 10.190	-37.895	 10.63539	  8.23521	  3.03252	  3.46605	  7.79772	 -0.27989	 11.11876	707.80798	 23.90	
 10.194	-28.474	 10.64777	  8.57702	  2.77472	  3.89185	  7.32879	 -0.26858	 11.13240	707.77600	 23.90	
 10.210	-18.966	 10.64347	  8.82727	  2.58223	  4.36954	  6.79841	 -0.25719	 11.12791	707.80200	 23.90	
 10.191	 -9.503	 10.65869	  8.98971	  2.48237	  4.89346	  6.26853	 -0.24997	 11.14015	707.78400	 23.90	
 10.200	  0.000	 10.65220	  9.04609	  2.44328	  5.42936	  5.71954	 -0.24917	 11.13049	707.90302	 23.90	
 10.191	  9.503	 10.63680	  8.99618	  2.47829	  5.98388	  5.16739	 -0.24832	 11.11566	707.97302	 23.90	
 10.210	 18.966	 10.63925	  8.86165	  2.59257	  6.52939	  4.66208	 -0.23869	 11.11816	707.78003	 23.90	
 10.194	 28.474	 10.65515	  8.64143	  2.79290	  7.06303	  4.20153	 -0.22633	 11.12721	707.91998	 23.90	
 10.190	 37.895	 10.63365	  8.30925	  3.05118	  7.53762	  3.77176	 -0.21546	 11.10348	707.82202	 23.90	
 10.215	 47.354	 10.65764	  7.93888	  3.37835	  7.99219	  3.40899	 -0.21461	 11.12735	707.90802	 23.90	
 10.203	 56.908	 10.65343	  7.47367	  3.77721	  8.34685	  3.11639	 -0.20765	 11.11472	707.93903	 23.90	
 10.192	 66.322	 10.67391	  6.97579	  4.23861	  8.63459	  2.90763	 -0.20487	 11.12593	707.86102	 23.90	
 10.208	 75.751	 10.68335	  6.44652	  4.73392	  8.83888	  2.75385	 -0.22083	 11.12964	707.95001	 23.90	
 10.210	 85.199	 10.67223	  5.89178	  5.25192	  8.92793	  2.67186	 -0.24936	 11.11723	707.86401	 23.90	
 10.210	 94.801	 10.68158	  5.33312	  5.81598	  8.93173	  2.67352	 -0.26307	 11.12006	707.94202	 23.90	
 10.208	104.249	 10.70147	  4.81242	  6.37599	  8.84656	  2.75419	 -0.26610	 11.13761	707.95599	 23.90	
 10.192	113.678	 10.70008	  4.31785	  6.90704	  8.64474	  2.90749	 -0.25470	 11.12867	707.90002	 23.90	
 10.203	123.092	 10.69805	  3.86260	  7.41270	  8.36767	  3.12093	 -0.24818	 11.13103	707.88800	 23.90	
 10.215	132.646	 10.69713	  3.45206	  7.87836	  8.00646	  3.40689	 -0.24790	 11.13158	707.91199	 23.90	
 10.190	142.105	 10.69988	  3.12195	  8.27320	  7.57143	  3.77156	 -0.24048	 11.13292	707.90002	 23.90	
 10.194	151.526	 10.70314	  2.85230	  8.59761	  7.08261	  4.19610	 -0.22714	 11.14029	708.01001	 23.90	
 10.210	161.034	 10.66002	  2.63571	  8.80296	  6.52875	  4.64383	 -0.22030	 11.09816	707.89502	 23.90	
 10.191	170.497	 10.67056	  2.51855	  8.95140	  5.99160	  5.15346	 -0.23508	 11.10796	707.97302	 23.90	
 11.899	171.783	 10.46324	  1.86368	  9.35003	  5.80019	  4.95367	 -0.33079	 11.10947	707.90900	 23.90	
 11.890	163.610	 10.47140	  1.97052	  9.23150	  6.35350	  4.44927	 -0.31608	 11.11474	707.97699	 23.90	
 11.889	155.445	 10.47947	  2.14240	  9.03081	  6.89696	  3.97225	 -0.31578	 11.12024	707.92798	 23.90	
 11.909	147.299	 10.48071	  2.36698	  8.75274	  7.41764	  3.52407	 -0.32508	 11.11939	707.87000	 23.90	
 11.902	139.148	 10.48863	  2.66620	  8.40030	  7.89303	  3.13872	 -0.33171	 11.12409	707.90601	 23.90	
 11.894	130.867	 10.48950	  3.02270	  7.97531	  8.31082	  2.80608	 -0.33444	 11.12112	707.93597	 23.90	
 11.897	122.732	 10.50011	  3.42540	  7.51430	  8.67963	  2.52674	 -0.34268	 11.13285	707.85999	 23.90	
 11.903	114.597	 10.49237	  3.86624	  7.00370	  8.96804	  2.30174	 -0.35508	 11.12620	707.84601	 23.90	
 11.893	106.346	 10.48272	  4.36050	  6.45255	  9.17259	  2.14159	 -0.36551	 11.11998	707.85199	 23.90	
 11.892	 98.155	 10.48992	  4.88788	  5.90403	  9.30745	  2.05083	 -0.36497	 11.13067	708.07397	 23.90	
 11.900	 90.000	 10.47163	  5.42448	  5.34547	  9.34181	  2.01737	 -0.35984	 11.12301	708.11200	 23.90	
 11.892	 81.845	 10.45688	  5.97384	  4.79761	  9.28793	  2.05000	 -0.33518	 11.11375	707.95398	 23.90	
 11.893	 73.654	 10.48919	  6.54895	  4.29218	  9.19025	  2.15409	 -0.30391	 11.15244	707.91998	 23.90	
 11.903	 65.403	 10.45039	  7.06900	  3.78658	  8.94549	  2.30748	 -0.28615	 11.11564	707.96997	 23.90	
 11.897	 57.268	 10.45813	  7.58501	  3.34430	  8.66542	  2.53538	 -0.28823	 11.12987	707.88800	 23.90	
 11.894	 49.133	 10.45052	  8.04802	  2.94955	  8.30158	  2.81929	 -0.28976	 11.12811	707.84900	 23.90	
 11.902	 40.852	 10.42859	  8.45150	  2.59469	  7.86859	  3.14683	 -0.29925	 11.11352	707.97400	 23.90	
 11.909	 32.701	 10.42476	  8.80339	  2.30835	  7.39957	  3.53401	 -0.31105	 11.11752	708.12799	 23.90	
 11.889	 24.555	 10.43704	  9.08569	  2.09349	  6.88766	  3.98805	 -0.32145	 11.13253	707.87799	 23.90	
 11.890	 16.390	 10.43219	  9.27965	  1.93328	  6.34910	  4.46628	 -0.33704	 11.13165	708.00201	 23.90	
 11.899	  8.217	 10.43585	  9.40251	  1.83419	  5.80038	  4.97641	 -0.33787	 11.13155	708.06000	 23.90	
 11.900	  0.000	 10.43292	  9.43397	  1.79710	  5.23296	  5.52168	 -0.33101	 11.13044	707.98798	 23.90	
 11.899	 -8.217	 10.43571	  9.38291	  1.82632	  4.68950	  6.07018	 -0.33298	 11.13237	708.08301	 23.90	
 11.890	-16.390	 10.42671	  9.23578	  1.91935	  4.16947	  6.60760	 -0.33253	 11.12262	708.04401	 23.90	
 11.889	-24.555	 10.41746	  9.00913	  2.07216	  3.67288	  7.13887	 -0.34324	 11.11371	707.95599	 23.90	
 11.909	-32.701	 10.42082	  8.72026	  2.28715	  3.22646	  7.64971	 -0.35474	 11.12035	707.93103	 23.90	
 11.902	-40.852	 10.41763	  8.35086	  2.57172	  2.83559	  8.10702	 -0.36513	 11.11566	707.98999	 23.90	
 11.894	-49.133	 10.41123	  7.91222	  2.91397	  2.48670	  8.52184	 -0.37959	 11.11114	707.89398	 23.90	
 11.897	-57.268	 10.41383	  7.44337	  3.30367	  2.20074	  8.87763	 -0.39267	 11.11722	707.91101	 23.90	
 11.903	-65.403	 10.41668	  6.92947	  3.74726	  1.97381	  9.16759	 -0.40913	 11.12259	707.95099	 23.90	
 11.893	-73.654	 10.43100	  6.39202	  4.24936	  1.81805	  9.38457	 -0.41914	 11.14124	708.09100	 23.90	
 11.892	-81.845	 10.42867	  5.83660	  4.77028	  1.72364	  9.50610	 -0.41995	 11.14595	707.94202	 23.90	
 11.900	-90.000	 10.40862	  5.27096	  5.30430	  1.68320	  9.53402	 -0.41152	 11.12705	707.84601	 23.90	
 11.892	-98.155	 10.40353	  4.72891	  5.85505	  1.71787	  9.48392	 -0.39234	 11.12509	707.90302	 23.90	
 11.893	-106.346	 10.39283	  4.20921	  6.39965	  1.80882	  9.35237	 -0.36161	 11.11398	707.97699	 23.90	
 11.903	-114.597	 10.41750	  3.72680	  6.95648	  1.96735	  9.16558	 -0.33832	 11.13695	707.90002	 23.90	
 11.897	-122.732	 10.42767	  3.29263	  7.46969	  2.19817	  8.88136	 -0.32792	 11.13625	707.89203	 23.90	
 11.894	-130.867	 10.43430	  2.90986	  7.94275	  2.48699	  8.52566	 -0.32657	 11.13604	707.95599	 23.90	
 11.902	-139.148	 10.43660	  2.56832	  8.36739	  2.83613	  8.09985	 -0.32242	 11.13123	707.86700	 23.90	
 11.909	-147.299	 10.43958	  2.28871	  8.72521	  3.22641	  7.64020	 -0.32145	 11.13323	707.89502	 23.90	
 11.889	-155.445	 10.46302	  2.09010	  9.01938	  3.68440	  7.14248	 -0.32540	 11.14234	707.91101	 23.90	
 11.890	-163.610	 10.44840	  1.93339	  9.21140	  4.17211	  6.59074	 -0.33603	 11.11349	708.08301	 23.90	
 11.899	-171.783	 10.45843	  1.84458	  9.35040	  4.69358	  6.05025	 -0.35218	 11.12425	708.13000	 23.90	
 11.900	180.000	 10.46929	  1.82057	  9.40112	  5.24173	  5.50464	 -0.35029	 11.12560	707.97302	 23.90	
 13.600	180.000	 10.23792	  1.17872	  9.76635	  5.02396	  5.28361	 -0.44915	 11.13671	707.98999	 23.90	
 13.608	-172.853	 10.22654	  1.19013	  9.72497	  4.47975	  5.81995	 -0.44909	 11.13449	707.92499	 23.90	
 13.611	-165.583	 10.21774	  1.25867	  9.60903	  3.94819	  6.37344	 -0.44073	 11.13260	707.81500	 23.90	
 13.601	-158.353	 10.20596	  1.39275	  9.40891	  3.43873	  6.92399	 -0.42249	 11.13067	707.89801	 23.90	
 13.609	-151.210	 10.19611	  1.56748	  9.15171	  2.97957	  7.43676	 -0.41074	 11.12665	707.86298	 23.90	
 13.611	-143.999	 10.18517	  1.80296	  8.82680	  2.56311	  7.92419	 -0.40600	 11.12397	707.97400	 23.90	
 13.601	-136.825	 10.18244	  2.09370	  8.44165	  2.18847	  8.38132	 -0.39941	 11.13030	707.96198	 23.90	
 13.596	-129.640	 10.16017	  2.42802	  7.98929	  1.86061	  8.77591	 -0.39392	 11.11108	707.95398	 23.90	
