FileType=PCF
NHL=14
Date=08/28/17	11:15:47
Facility=APL
Serial=16328-10
Customer=NASA
NP=6
Mach=0.050000
Calibration=1:1
CalPts=490
TstPts=95
PortNumbering=AP Standard
Units=Torr C m/s kg/m^3 deg mm 
Theta[deg]	Phi[deg]	P1[Torr]	P2[Torr]	P3[Torr]	P4[Torr]	P5[Torr]	P6[Torr]	Pt[Torr]	Ps[Abs,Torr]	Ts[C]	
  0.000	  0.000	  1.29734	  0.73137	  0.72885	  0.72768	  0.73913	  0.00867	  1.28958	708.34698	 23.80	
  1.691	128.401	  1.28608	  0.69345	  0.74724	  0.74844	  0.69766	  0.00794	  1.27860	708.43402	 23.80	
  1.692	 77.194	  1.28716	  0.73232	  0.70833	  0.75793	  0.69106	  0.00760	  1.27924	708.30798	 23.80	
  1.699	 26.182	  1.28917	  0.77105	  0.67323	  0.73113	  0.71353	  0.00692	  1.28218	708.42603	 23.80	
  1.699	-26.182	  1.29178	  0.77358	  0.67084	  0.68568	  0.76289	  0.00703	  1.28494	708.44897	 23.80	
  1.692	-77.194	  1.29087	  0.73264	  0.70458	  0.65835	  0.79302	  0.00695	  1.28367	708.44897	 23.80	
  1.691	-128.401	  1.29323	  0.69070	  0.75125	  0.66871	  0.78285	  0.00654	  1.28661	708.35400	 23.80	
  1.700	180.000	  1.29292	  0.67352	  0.77378	  0.71090	  0.73734	  0.00808	  1.28574	708.40601	 23.80	
  3.400	180.000	  1.29167	  0.60682	  0.83524	  0.70244	  0.73381	  0.00462	  1.28661	708.45099	 23.80	
  3.388	-152.325	  1.29422	  0.61725	  0.82233	  0.64999	  0.79103	  0.00282	  1.28954	708.27802	 23.80	
  3.397	-124.529	  1.29652	  0.65441	  0.78289	  0.61235	  0.83726	  0.00362	  1.29314	708.33899	 23.80	
  3.399	-96.763	  1.29394	  0.70339	  0.72740	  0.59348	  0.85783	  0.00230	  1.28979	708.42102	 23.80	
  3.394	-69.283	  1.29325	  0.75916	  0.67085	  0.59939	  0.84949	  0.00164	  1.28945	708.36499	 23.80	
  3.400	-41.398	  1.29366	  0.81000	  0.62540	  0.62673	  0.81727	  0.00079	  1.28867	708.46802	 23.80	
  3.401	-14.021	  1.29640	  0.84009	  0.60529	  0.67608	  0.76705	  0.00159	  1.29193	708.42102	 23.80	
  3.401	 14.021	  1.29349	  0.84032	  0.60531	  0.73228	  0.70857	  0.00443	  1.28877	708.28497	 23.80	
  3.400	 41.398	  1.29347	  0.81242	  0.62828	  0.78345	  0.66104	  0.00354	  1.28908	708.42999	 23.80	
  3.394	 69.283	  1.29321	  0.76257	  0.67350	  0.81713	  0.63277	  0.00469	  1.28843	708.28802	 23.80	
  3.399	 96.763	  1.29512	  0.70891	  0.72885	  0.82620	  0.62916	  0.00518	  1.28933	708.40302	 23.80	
  3.397	124.529	  1.29562	  0.65850	  0.78341	  0.80611	  0.64518	  0.00434	  1.29031	708.16400	 23.80	
  3.388	152.325	  1.29756	  0.62373	  0.82430	  0.76197	  0.68429	  0.00456	  1.29189	708.31097	 23.80	
  5.099	161.165	  1.28587	  0.54808	  0.88362	  0.75507	  0.66752	 -0.00103	  1.28627	708.35797	 23.80	
  5.109	142.013	  1.29022	  0.57728	  0.85530	  0.81142	  0.62063	 -0.00085	  1.29022	708.41302	 23.80	
  5.095	123.033	  1.29204	  0.62054	  0.80936	  0.85574	  0.58602	 -0.00060	  1.29191	708.32001	 23.80	
  5.105	104.191	  1.28915	  0.67042	  0.75193	  0.88007	  0.56388	 -0.00091	  1.28895	708.29401	 23.80	
  5.093	 85.207	  1.28359	  0.72639	  0.68841	  0.88198	  0.55754	  0.00135	  1.28383	708.36499	 23.80	
  5.104	 66.290	  1.28594	  0.78735	  0.63364	  0.86840	  0.57010	  0.00068	  1.28683	708.32501	 23.80	
  5.094	 47.331	  1.28634	  0.83989	  0.58614	  0.83337	  0.59988	  0.00116	  1.28705	708.39801	 23.80	
  5.089	 28.397	  1.29084	  0.88167	  0.55459	  0.78627	  0.64551	 -0.00018	  1.29152	708.41803	 23.80	
  5.096	  9.576	  1.29100	  0.90132	  0.53601	  0.72793	  0.69937	 -0.00182	  1.29152	708.39301	 23.80	
  5.096	 -9.576	  1.29256	  0.90189	  0.53600	  0.66740	  0.76183	 -0.00349	  1.29380	708.37000	 23.80	
  5.089	-28.397	  1.28234	  0.87208	  0.54948	  0.60828	  0.81337	 -0.00381	  1.28221	708.36200	 23.70	
  5.094	-47.331	  1.28261	  0.83272	  0.58221	  0.56412	  0.86308	 -0.00464	  1.28469	708.22900	 23.70	
  5.104	-66.290	  1.28957	  0.78432	  0.63302	  0.53712	  0.90359	 -0.00442	  1.29128	708.31299	 23.70	
  5.093	-85.207	  1.29673	  0.72741	  0.69357	  0.52650	  0.92448	 -0.00454	  1.29829	708.34399	 23.70	
  5.105	-104.191	  1.29106	  0.66465	  0.75152	  0.52743	  0.91513	 -0.00331	  1.29337	708.39301	 23.70	
  5.095	-123.033	  1.29509	  0.61331	  0.81079	  0.55109	  0.89105	 -0.00231	  1.29624	708.35101	 23.70	
  5.109	-142.013	  1.29267	  0.57035	  0.85818	  0.58887	  0.84431	 -0.00233	  1.29445	708.34003	 23.70	
  5.099	-161.165	  1.29434	  0.54534	  0.89058	  0.63971	  0.78980	 -0.00138	  1.29514	708.28900	 23.70	
  5.100	180.000	  1.29192	  0.53753	  0.89895	  0.69734	  0.72864	 -0.00094	  1.29349	708.29199	 23.70	
  6.800	180.000	  1.28544	  0.46830	  0.95714	  0.68621	  0.71918	 -0.00818	  1.29584	708.25702	 23.70	
  6.796	-166.229	  1.27805	  0.46932	  0.94415	  0.62403	  0.77446	 -0.00753	  1.29060	708.30499	 23.70	
  6.808	-152.311	  1.28295	  0.48808	  0.92602	  0.57308	  0.83392	 -0.00761	  1.29463	708.22400	 23.70	
  6.795	-138.383	  1.27773	  0.51679	  0.88420	  0.52383	  0.88441	 -0.00819	  1.29105	708.14502	 23.70	
  6.792	-124.591	  1.27582	  0.55835	  0.83499	  0.48685	  0.92642	 -0.00896	  1.28887	708.16101	 23.70	
  6.787	-110.754	  1.27859	  0.60859	  0.78211	  0.46411	  0.95715	 -0.01035	  1.29176	708.27502	 23.70	
  6.800	-96.985	  1.28018	  0.66516	  0.72448	  0.45249	  0.97497	 -0.01106	  1.29269	708.23999	 23.70	
  6.800	-83.015	  1.28065	  0.72659	  0.66225	  0.45227	  0.97570	 -0.01431	  1.29396	708.21002	 23.70	
  6.787	-69.246	  1.27889	  0.78489	  0.60589	  0.46413	  0.95952	 -0.01363	  1.29274	708.27698	 23.70	
  6.792	-55.409	  1.28074	  0.84127	  0.55679	  0.48919	  0.93107	 -0.01293	  1.29325	708.27802	 23.70	
  6.795	-41.617	  1.28325	  0.89048	  0.51716	  0.52748	  0.88909	 -0.01355	  1.29559	708.43701	 23.70	
  6.808	-27.689	  1.28405	  0.93056	  0.48556	  0.57365	  0.83786	 -0.01243	  1.29698	708.21301	 23.70	
  6.796	-13.771	  1.28164	  0.95269	  0.46722	  0.62711	  0.77883	 -0.01110	  1.29382	708.12598	 23.70	
  6.800	  0.000	  1.28732	  0.96589	  0.46213	  0.68680	  0.72348	 -0.01107	  1.29958	708.28497	 23.70	
  6.796	 13.771	  1.28290	  0.95573	  0.46859	  0.74540	  0.66243	 -0.00906	  1.29541	708.23999	 23.70	
  6.808	 27.689	  1.28104	  0.93193	  0.48593	  0.80267	  0.60694	 -0.00866	  1.29258	708.21002	 23.70	
  6.795	 41.617	  1.28037	  0.89504	  0.51720	  0.85349	  0.56156	 -0.00864	  1.29064	708.17102	 23.70	
  6.792	 55.409	  1.28360	  0.84937	  0.56098	  0.89973	  0.52666	 -0.00737	  1.29481	708.28497	 23.70	
  6.787	 69.246	  1.28244	  0.79428	  0.60936	  0.92786	  0.50233	 -0.00626	  1.29197	708.36499	 23.70	
  6.800	 83.015	  1.27971	  0.73318	  0.66452	  0.94328	  0.48785	 -0.00719	  1.29059	708.20697	 23.70	
  6.800	 96.985	  1.28151	  0.67502	  0.72447	  0.94399	  0.48927	 -0.00761	  1.29194	708.24597	 23.70	
  6.787	110.754	  1.28544	  0.61974	  0.78714	  0.93103	  0.50319	 -0.00870	  1.29560	708.27100	 23.70	
  6.792	124.591	  1.28504	  0.56944	  0.84239	  0.90090	  0.52587	 -0.00845	  1.29554	708.30902	 23.70	
  6.795	138.383	  1.28351	  0.52686	  0.88943	  0.85696	  0.56139	 -0.00967	  1.29345	708.34998	 23.70	
  6.808	152.311	  1.28421	  0.49475	  0.92698	  0.80655	  0.60608	 -0.00985	  1.29479	708.19800	 23.70	
  6.796	166.229	  1.28719	  0.47703	  0.95148	  0.74857	  0.66213	 -0.00840	  1.29838	708.28003	 23.70	
  8.491	168.704	  1.26444	  0.39863	  0.99910	  0.73146	  0.63834	 -0.01760	  1.28863	708.46600	 23.70	
  8.502	157.493	  1.26872	  0.41697	  0.98374	  0.79358	  0.58562	 -0.01693	  1.29472	708.30902	 23.70	
  8.494	146.194	  1.26410	  0.44203	  0.94830	  0.84729	  0.53448	 -0.01755	  1.28906	708.32703	 23.70	
  8.495	135.039	  1.26535	  0.47827	  0.90803	  0.89816	  0.49264	 -0.01824	  1.28936	708.36401	 23.70	
  8.487	123.723	  1.26135	  0.51910	  0.85442	  0.93784	  0.45652	 -0.01801	  1.28564	708.42700	 23.70	
  8.492	112.575	  1.26397	  0.57174	  0.80001	  0.97119	  0.43330	 -0.01579	  1.28871	708.34399	 23.70	
  8.510	101.220	  1.26706	  0.63078	  0.74000	  0.99247	  0.41919	 -0.01715	  1.29119	708.33099	 23.70	
  8.500	 90.000	  1.27197	  0.69308	  0.68250	  1.00295	  0.41662	 -0.01633	  1.29633	708.22302	 23.70	
  8.510	 78.780	  1.26539	  0.75143	  0.61868	  0.99182	  0.41908	 -0.01342	  1.29053	708.27802	 23.70	
  8.492	 67.425	  1.26960	  0.81377	  0.56409	  0.97666	  0.43514	 -0.01448	  1.29514	708.28497	 23.70	
  8.487	 56.277	  1.26715	  0.86775	  0.51353	  0.94258	  0.46005	 -0.01447	  1.29177	708.15002	 23.70	
  8.495	 44.961	  1.26216	  0.91499	  0.46729	  0.89655	  0.49264	 -0.01560	  1.28829	708.18402	 23.70	
  8.494	 33.806	  1.26495	  0.95966	  0.43363	  0.84728	  0.53796	 -0.01550	  1.29188	708.23798	 23.70	
  8.502	 22.507	  1.26931	  0.99273	  0.40908	  0.79421	  0.58884	 -0.01719	  1.29551	708.30200	 23.70	
  8.491	 11.296	  1.26528	  1.00809	  0.39194	  0.73077	  0.64332	 -0.02010	  1.29341	708.38098	 23.70	
  8.500	  0.000	  1.26783	  1.01418	  0.38817	  0.67063	  0.70390	 -0.02215	  1.29413	708.36499	 23.70	
  8.491	-11.296	  1.26116	  1.00180	  0.39088	  0.60705	  0.76202	 -0.02027	  1.28943	708.28802	 23.70	
  8.502	-22.507	  1.26238	  0.98327	  0.40476	  0.55021	  0.82293	 -0.02257	  1.28950	708.33099	 23.70	
  8.494	-33.806	  1.25743	  0.94668	  0.42899	  0.49731	  0.87683	 -0.02263	  1.28508	708.32001	 23.70	
  8.495	-44.961	  1.26299	  0.90760	  0.46546	  0.45659	  0.92998	 -0.02320	  1.29104	708.39801	 23.70	
  8.487	-56.277	  1.27190	  0.86263	  0.51300	  0.42646	  0.97693	 -0.02251	  1.29996	708.33398	 23.70	
  8.492	-67.425	  1.27289	  0.80576	  0.56338	  0.40092	  1.00952	 -0.02371	  1.30183	708.43402	 23.70	
  8.510	-78.780	  1.25417	  0.73301	  0.61312	  0.37961	  1.01438	 -0.02432	  1.28188	708.34399	 23.70	
  8.500	-90.000	  1.25940	  0.67467	  0.67493	  0.37618	  1.02423	 -0.02329	  1.28887	708.28802	 23.70	
  8.510	-101.220	  1.26134	  0.61576	  0.73734	  0.38133	  1.01967	 -0.02054	  1.29009	708.39301	 23.70	
  8.492	-112.575	  1.25737	  0.55795	  0.79514	  0.39517	  0.99685	 -0.01880	  1.28668	708.32001	 23.70	
  8.487	-123.723	  1.26573	  0.51162	  0.85639	  0.42271	  0.97225	 -0.01780	  1.29510	708.33301	 23.70	
  8.495	-135.039	  1.26042	  0.46707	  0.90435	  0.45582	  0.92698	 -0.01721	  1.28899	708.42999	 23.60	
  8.494	-146.194	  1.26563	  0.43562	  0.94942	  0.50131	  0.88016	 -0.01573	  1.29330	708.28601	 23.60	
  8.502	-157.493	  1.26419	  0.40972	  0.98033	  0.55288	  0.82095	 -0.01582	  1.29088	708.33301	 23.60	
  8.491	-168.704	  1.26407	  0.39635	  0.99978	  0.60923	  0.76138	 -0.01680	  1.29092	708.29700	 23.60	
  8.500	180.000	  1.26754	  0.39377	  1.00812	  0.67083	  0.70171	 -0.01779	  1.29281	708.37500	 23.60	
 10.200	180.000	  1.24730	  0.31897	  1.05669	  0.65066	  0.68274	 -0.02793	  1.29216	708.34198	 23.60	
 10.191	-170.497	  1.24841	  0.32176	  1.05176	  0.59078	  0.74423	 -0.02774	  1.29489	708.35602	 23.60	
 10.210	-161.034	  1.24679	  0.33305	  1.03393	  0.53158	  0.80530	 -0.02456	  1.29391	708.37903	 23.60	
 10.194	-151.526	  1.24908	  0.35213	  1.00962	  0.47842	  0.86652	 -0.02546	  1.29719	708.29498	 23.60	
 10.190	-142.105	  1.24708	  0.38182	  0.97023	  0.43007	  0.92084	 -0.02527	  1.29566	708.24597	 23.60	
 10.215	-132.646	  1.24318	  0.41678	  0.92296	  0.38874	  0.96652	 -0.02659	  1.29085	708.17902	 23.60	
 10.203	-123.092	  1.24169	  0.46004	  0.86885	  0.35448	  1.00740	 -0.02719	  1.29180	708.30200	 23.60	
 10.192	-113.678	  1.24899	  0.51379	  0.81557	  0.33038	  1.04615	 -0.02754	  1.29888	708.44897	 23.60	
 10.208	-104.249	  1.24380	  0.56593	  0.75200	  0.31097	  1.06423	 -0.03110	  1.29336	708.42999	 23.60	
 10.210	-94.801	  1.23171	  0.62008	  0.68229	  0.29958	  1.06562	 -0.03205	  1.28049	708.34802	 23.60	
 10.210	-85.199	  1.22093	  0.67637	  0.61425	  0.29735	  1.05592	 -0.03531	  1.26967	708.24701	 23.60	
 10.208	-75.751	  1.23014	  0.74322	  0.56119	  0.30841	  1.05361	 -0.03552	  1.27945	708.30200	 23.60	
 10.192	-66.322	  1.23676	  0.80648	  0.50950	  0.32839	  1.03633	 -0.03298	  1.28472	708.30798	 23.60	
 10.203	-56.908	  1.25032	  0.87430	  0.46315	  0.35550	  1.01651	 -0.03353	  1.29867	708.36700	 23.60	
 10.215	-47.354	  1.23951	  0.92090	  0.41277	  0.38580	  0.96651	 -0.03440	  1.28801	708.37903	 23.60	
 10.190	-37.895	  1.23548	  0.96170	  0.37722	  0.42642	  0.91413	 -0.03335	  1.28180	708.36401	 23.60	
 10.194	-28.474	  1.24341	  1.00669	  0.34879	  0.47453	  0.86707	 -0.03217	  1.29139	708.33600	 23.60	
 10.210	-18.966	  1.23924	  1.03306	  0.32595	  0.52683	  0.80452	 -0.03127	  1.28637	708.38202	 23.60	
 10.191	 -9.503	  1.24111	  1.05178	  0.31571	  0.58619	  0.74524	 -0.03021	  1.28885	708.34198	 23.60	
 10.200	  0.000	  1.23686	  1.05386	  0.31152	  0.64530	  0.68141	 -0.02974	  1.28398	708.44098	 23.60	
 10.191	  9.503	  1.23830	  1.05262	  0.31326	  0.70698	  0.62100	 -0.03160	  1.28554	708.47498	 23.60	
 10.210	 18.966	  1.24193	  1.03984	  0.32820	  0.77231	  0.56465	 -0.02812	  1.28952	708.32300	 23.60	
 10.194	 28.474	  1.24989	  1.01968	  0.35304	  0.83660	  0.51662	 -0.02600	  1.29612	708.44897	 23.60	
 10.190	 37.895	  1.23812	  0.97507	  0.37926	  0.88520	  0.46405	 -0.02483	  1.28383	708.32001	 23.60	
 10.215	 47.354	  1.23222	  0.92541	  0.41427	  0.93081	  0.42026	 -0.02523	  1.27888	708.32300	 23.60	
 10.203	 56.908	  1.23696	  0.87614	  0.46070	  0.97430	  0.38985	 -0.02326	  1.28210	708.42902	 23.60	
 10.192	 66.322	  1.24639	  0.82715	  0.51478	  1.01285	  0.36922	 -0.02144	  1.29095	708.28198	 23.60	
 10.208	 75.751	  1.24136	  0.76320	  0.56790	  1.03140	  0.34967	 -0.02263	  1.28594	708.22900	 23.60	
 10.210	 85.199	  1.24670	  0.70377	  0.62890	  1.04685	  0.34178	 -0.02483	  1.29130	708.23798	 23.60	
 10.210	 94.801	  1.24386	  0.63889	  0.69078	  1.04522	  0.34085	 -0.02623	  1.28821	708.30902	 23.60	
 10.208	104.249	  1.25107	  0.58230	  0.75690	  1.03989	  0.35001	 -0.02754	  1.29464	708.19299	 23.60	
 10.192	113.678	  1.24194	  0.52306	  0.81168	  1.00883	  0.36597	 -0.02721	  1.28411	708.26398	 23.60	
 10.203	123.092	  1.24188	  0.47133	  0.86879	  0.97764	  0.38897	 -0.02756	  1.28530	708.16101	 23.60	
 10.215	132.646	  1.25366	  0.42946	  0.93037	  0.94612	  0.42405	 -0.02931	  1.29690	708.33600	 23.60	
 10.190	142.105	  1.25132	  0.39237	  0.97303	  0.89374	  0.46529	 -0.02928	  1.29459	708.36700	 23.60	
 10.194	151.526	  1.24739	  0.36018	  1.00709	  0.83512	  0.51079	 -0.02775	  1.29064	708.30298	 23.60	
 10.210	161.034	  1.24773	  0.33812	  1.03489	  0.77645	  0.56333	 -0.02679	  1.29321	708.39502	 23.50	
 10.191	170.497	  1.24565	  0.32461	  1.04835	  0.71294	  0.62016	 -0.02714	  1.28850	708.40302	 23.50	
 11.899	171.783	  1.22946	  0.25039	  1.10068	  0.69633	  0.60062	 -0.03831	  1.29854	708.33600	 23.50	
 11.890	163.610	  1.22228	  0.26001	  1.08029	  0.75437	  0.53883	 -0.03663	  1.29037	708.53003	 23.50	
 11.889	155.445	  1.21560	  0.27843	  1.05108	  0.81043	  0.48267	 -0.03742	  1.28267	708.37299	 23.50	
 11.909	147.299	  1.22005	  0.30627	  1.02264	  0.87192	  0.43570	 -0.03722	  1.28642	708.35101	 23.50	
 11.902	139.148	  1.22424	  0.34161	  0.98423	  0.92834	  0.39341	 -0.03797	  1.29011	708.36700	 23.50	
 11.894	130.867	  1.21825	  0.37811	  0.93261	  0.97131	  0.35331	 -0.03770	  1.28391	708.22302	 23.50	
 11.897	122.732	  1.21931	  0.42216	  0.88007	  1.01359	  0.32063	 -0.03865	  1.28544	708.39502	 23.50	
 11.903	114.597	  1.22354	  0.47455	  0.82490	  1.05070	  0.29639	 -0.03709	  1.29024	708.46802	 23.50	
 11.893	106.346	  1.22615	  0.53147	  0.76498	  1.07646	  0.28012	 -0.03708	  1.29260	708.41998	 23.50	
 11.892	 98.155	  1.22170	  0.58926	  0.69998	  1.08839	  0.26839	 -0.03718	  1.28857	708.28601	 23.50	
 11.900	 90.000	  1.22102	  0.64984	  0.63756	  1.09193	  0.26588	 -0.03603	  1.28848	708.33099	 23.50	
 11.892	 81.845	  1.22088	  0.71275	  0.57669	  1.08755	  0.26999	 -0.03338	  1.28899	708.26001	 23.50	
 11.893	 73.654	  1.22196	  0.77550	  0.51876	  1.07399	  0.28123	 -0.03258	  1.29012	708.29401	 23.50	
 11.903	 65.403	  1.22343	  0.83667	  0.46419	  1.05106	  0.29909	 -0.03324	  1.29168	708.29498	 23.50	
 11.897	 57.268	  1.21980	  0.89315	  0.41267	  1.01662	  0.32255	 -0.03438	  1.29040	708.33398	 23.50	
 11.894	 49.133	  1.22406	  0.94877	  0.36958	  0.97803	  0.35685	 -0.03425	  1.29420	708.42700	 23.50	
 11.902	 40.852	  1.22235	  0.99606	  0.32887	  0.92882	  0.39492	 -0.03476	  1.29264	708.21301	 23.50	
 11.909	 32.701	  1.21263	  1.02779	  0.29485	  0.86828	  0.43533	 -0.03308	  1.28340	708.46002	 23.50	
 11.889	 24.555	  1.21610	  1.06236	  0.27056	  0.81148	  0.48773	 -0.03482	  1.28671	708.37097	 23.50	
 11.890	 16.390	  1.21664	  1.08531	  0.25353	  0.75123	  0.54200	 -0.03720	  1.28727	708.40698	 23.50	
 11.899	  8.217	  1.21906	  1.10055	  0.24266	  0.69149	  0.60030	 -0.03972	  1.29173	708.35602	 23.50	
 11.900	  0.000	  1.22092	  1.10615	  0.23755	  0.62672	  0.66347	 -0.04049	  1.29298	708.34698	 23.50	
 11.899	 -8.217	  1.21903	  1.09819	  0.24161	  0.56525	  0.72450	 -0.04011	  1.29034	708.35797	 23.50	
 11.890	-16.390	  1.21798	  1.08069	  0.25190	  0.50660	  0.78489	 -0.03980	  1.28920	708.41998	 23.50	
 11.889	-24.555	  1.21822	  1.05727	  0.26845	  0.45013	  0.84642	 -0.04087	  1.29055	708.38501	 23.40	
 11.909	-32.701	  1.22636	  1.02993	  0.29692	  0.40385	  0.90964	 -0.04151	  1.29832	708.32501	 23.50	
 11.902	-40.852	  1.21451	  0.97778	  0.32626	  0.35669	  0.95214	 -0.04298	  1.28570	708.24103	 23.50	
 11.894	-49.133	  1.21694	  0.93074	  0.36625	  0.31883	  1.00214	 -0.04248	  1.28923	708.32300	 23.50	
 11.897	-57.268	  1.21725	  0.87651	  0.41040	  0.28620	  1.04286	 -0.04197	  1.28992	708.22101	 23.50	
 11.903	-65.403	  1.21226	  0.81577	  0.45664	  0.25770	  1.07197	 -0.04235	  1.28547	708.44397	 23.40	
 11.893	-73.654	  1.21442	  0.75662	  0.51278	  0.24155	  1.09661	 -0.04243	  1.28794	708.45697	 23.40	
 11.892	-81.845	  1.21266	  0.69258	  0.57167	  0.23091	  1.10936	 -0.04523	  1.28666	708.39600	 23.40	
 11.900	-90.000	  1.21182	  0.63034	  0.63179	  0.22730	  1.11323	 -0.04416	  1.28621	708.44897	 23.40	
 11.892	-98.155	  1.21614	  0.57114	  0.69659	  0.23201	  1.11156	 -0.04150	  1.29041	708.34698	 23.40	
 11.893	-106.346	  1.22201	  0.51531	  0.76225	  0.24356	  1.10266	 -0.03978	  1.29704	708.33099	 23.40	
 11.903	-114.597	  1.21679	  0.45871	  0.82109	  0.26013	  1.07502	 -0.03760	  1.29114	708.21802	 23.40	
 11.897	-122.732	  1.21467	  0.40922	  0.87717	  0.28563	  1.04023	 -0.03623	  1.28713	708.42297	 23.40	
 11.894	-130.867	  1.21971	  0.36653	  0.93463	  0.31942	  1.00322	 -0.03520	  1.29328	708.38898	 23.40	
 11.902	-139.148	  1.21403	  0.32758	  0.97754	  0.35746	  0.94977	 -0.03512	  1.28539	708.20697	 23.40	
 11.909	-147.299	  1.22009	  0.29627	  1.02269	  0.40236	  0.90117	 -0.03376	  1.29091	708.27502	 23.40	
 11.889	-155.445	  1.21717	  0.27301	  1.05205	  0.45150	  0.84184	 -0.03403	  1.28770	708.38202	 23.40	
 11.890	-163.610	  1.21744	  0.25603	  1.07565	  0.50725	  0.78026	 -0.03666	  1.28715	708.38202	 23.40	
 11.899	-171.783	  1.22388	  0.24699	  1.09597	  0.56789	  0.72217	 -0.03804	  1.29392	708.21503	 23.40	
 11.900	180.000	  1.22251	  0.24404	  1.09983	  0.62887	  0.65901	 -0.03843	  1.29092	708.17603	 23.40	
 13.600	180.000	  1.19274	  0.17094	  1.13771	  0.60385	  0.63259	 -0.04787	  1.28888	708.17401	 23.40	
 13.608	-172.853	  1.19501	  0.17285	  1.13638	  0.54407	  0.69552	 -0.04818	  1.29277	708.17902	 23.40	
 13.611	-165.583	  1.19452	  0.18112	  1.12321	  0.48431	  0.75893	 -0.04626	  1.29290	708.23700	 23.40	
 13.601	-158.353	  1.19113	  0.19492	  1.09876	  0.42617	  0.81858	 -0.04440	  1.28897	708.27802	 23.50	
 13.609	-151.210	  1.19243	  0.21504	  1.07176	  0.37547	  0.87892	 -0.04329	  1.29171	708.33301	 23.40	
 13.611	-143.999	  1.19318	  0.24178	  1.03580	  0.32780	  0.93504	 -0.04464	  1.29384	708.23798	 23.50	
 13.601	-136.825	  1.18965	  0.27364	  0.98984	  0.28469	  0.98505	 -0.04478	  1.29069	708.26801	 23.40	
 13.596	-129.640	  1.18153	  0.31153	  0.93383	  0.24722	  1.02430	 -0.04473	  1.28162	708.21503	 23.40	
