FileType=PCF
NHL=14
Date=08/28/17	08:54:38
Facility=APL
Serial=16328-10
Customer=NASA
NP=6
Mach=0.250000
Calibration=1:1
CalPts=490
TstPts=95
PortNumbering=AP Standard
Units=Torr C m/s kg/m^3 deg mm 
Theta[deg]	Phi[deg]	P1[Torr]	P2[Torr]	P3[Torr]	P4[Torr]	P5[Torr]	P6[Torr]	Pt[Torr]	Ps[Abs,Torr]	Ts[C]	
  0.000	  0.000	 30.86737	 17.18225	 17.15513	 16.74310	 17.33386	  0.26585	 30.82375	709.92902	 23.50	
  1.691	128.401	 30.89571	 16.21674	 18.05385	 17.90579	 16.20579	  0.25888	 30.85480	709.81897	 23.50	
  1.692	 77.194	 30.87584	 17.51632	 16.79690	 18.23179	 15.88803	  0.26257	 30.83273	709.73700	 23.50	
  1.699	 26.182	 30.85524	 18.53189	 15.76306	 17.35484	 16.64033	  0.27491	 30.81191	709.66199	 23.50	
  1.699	-26.182	 30.82889	 18.48170	 15.74606	 16.02761	 17.99875	  0.25464	 30.79406	709.79999	 23.50	
  1.692	-77.194	 30.82121	 17.43768	 16.75733	 15.25786	 18.79217	  0.24250	 30.78339	709.81598	 23.50	
  1.691	-128.401	 30.87377	 16.17117	 18.03432	 15.54740	 18.53830	  0.24523	 30.83258	709.89203	 23.50	
  1.700	180.000	 30.86195	 15.58645	 18.59279	 16.68744	 17.31646	  0.26423	 30.82292	709.83398	 23.50	
  3.400	180.000	 30.79683	 13.93925	 19.91947	 16.53478	 17.18377	  0.20113	 30.80397	709.86499	 23.50	
  3.388	-152.325	 30.78695	 14.22819	 19.54320	 15.18034	 18.64671	  0.18457	 30.80509	709.88098	 23.50	
  3.397	-124.529	 30.78031	 15.20177	 18.62308	 14.15706	 19.73403	  0.18258	 30.80673	709.79700	 23.50	
  3.399	-96.763	 30.79558	 16.60555	 17.31100	 13.67935	 20.26216	  0.17055	 30.82278	709.82001	 23.50	
  3.394	-69.283	 30.75632	 18.02688	 15.89230	 13.83522	 20.05570	  0.16224	 30.78268	709.83899	 23.50	
  3.400	-41.398	 30.82875	 19.29241	 14.71949	 14.65932	 19.27300	  0.17974	 30.84296	709.90698	 23.50	
  3.401	-14.021	 30.78152	 19.82903	 13.97898	 15.84157	 17.94894	  0.18989	 30.79242	709.91803	 23.50	
  3.401	 14.021	 30.74563	 19.83178	 14.04422	 17.22700	 16.38984	  0.21221	 30.75874	709.74902	 23.50	
  3.400	 41.398	 30.76557	 19.13906	 14.70438	 18.63950	 15.20881	  0.21409	 30.76875	709.81097	 23.40	
  3.394	 69.283	 30.82877	 18.16236	 15.93612	 19.53428	 14.48175	  0.21992	 30.82938	709.84998	 23.40	
  3.399	 96.763	 30.78239	 16.71013	 17.31373	 19.67615	 14.32226	  0.22353	 30.78194	709.84802	 23.40	
  3.397	124.529	 30.79319	 15.30644	 18.66613	 19.14091	 14.81911	  0.21337	 30.79343	709.81702	 23.40	
  3.388	152.325	 30.75603	 14.28709	 19.54178	 17.94815	 15.82697	  0.21007	 30.75850	709.83099	 23.40	
  5.099	161.165	 30.61985	 12.62484	 21.01943	 17.79954	 15.55897	  0.09393	 30.76715	709.96002	 23.40	
  5.109	142.013	 30.60255	 13.27953	 20.27374	 19.19461	 14.30403	  0.09812	 30.74354	709.88898	 23.40	
  5.095	123.033	 30.61915	 14.33864	 19.12056	 20.24164	 13.35552	  0.09252	 30.75169	709.83600	 23.40	
  5.105	104.191	 30.63887	 15.71454	 17.86346	 20.89647	 12.83307	  0.10010	 30.77309	709.90601	 23.40	
  5.093	 85.207	 30.63270	 17.23876	 16.40158	 21.00961	 12.71336	  0.06792	 30.76655	709.18103	 23.40	
  5.104	 66.290	 30.60735	 18.68785	 14.93625	 20.63733	 13.01149	  0.13398	 30.74209	710.04401	 23.40	
  5.094	 47.331	 30.61494	 19.79383	 13.65805	 19.78065	 13.73990	  0.13421	 30.75485	709.96802	 23.40	
  5.089	 28.397	 30.57092	 20.73206	 12.78778	 18.53610	 14.85876	  0.12471	 30.73093	709.87903	 23.40	
  5.096	  9.576	 30.59619	 21.24898	 12.35842	 17.10505	 16.21176	  0.11320	 30.76279	709.82800	 23.40	
  5.096	 -9.576	 30.55848	 21.17808	 12.32370	 15.59622	 17.68286	  0.06679	 30.72241	709.99902	 23.40	
  5.089	-28.397	 30.56854	 20.66151	 12.75235	 14.26508	 19.13706	  0.02936	 30.74450	709.93500	 23.40	
  5.094	-47.331	 30.55718	 19.64830	 13.58102	 13.06208	 20.33627	  0.01330	 30.73476	710.01599	 23.40	
  5.104	-66.290	 30.52798	 18.49666	 14.86268	 12.28309	 21.16558	  0.02979	 30.71544	710.03900	 23.40	
  5.093	-85.207	 30.52855	 17.05120	 16.29158	 11.93263	 21.53923	  0.02114	 30.72872	709.95697	 23.40	
  5.105	-104.191	 30.51774	 15.53589	 17.75199	 12.05211	 21.39412	  0.00769	 30.71139	709.89502	 23.40	
  5.095	-123.033	 30.55713	 14.17294	 19.04016	 12.63396	 20.83062	  0.07040	 30.75107	709.92700	 23.40	
  5.109	-142.013	 30.55537	 13.17412	 20.22376	 13.57208	 19.80480	  0.08046	 30.73644	710.01703	 23.40	
  5.099	-161.165	 30.55992	 12.55196	 20.97125	 14.83850	 18.45641	  0.09631	 30.72719	709.98297	 23.30	
  5.100	180.000	 30.56870	 12.37973	 21.22449	 16.26972	 16.96654	  0.09385	 30.72358	710.04498	 23.40	
  6.800	180.000	 30.31213	 10.67654	 22.49922	 15.94804	 16.62133	 -0.12067	 30.71884	709.91199	 23.40	
  6.796	-166.229	 30.32232	 10.80936	 22.32718	 14.57038	 18.07482	 -0.10921	 30.75620	710.03802	 23.40	
  6.808	-152.311	 30.28238	 11.25012	 21.75546	 13.21341	 19.49036	 -0.10003	 30.73005	709.98798	 23.40	
  6.795	-138.383	 30.26096	 11.99233	 20.87539	 12.09133	 20.72802	 -0.12855	 30.72201	710.10303	 23.40	
  6.792	-124.591	 30.22462	 12.96017	 19.70082	 11.18283	 21.70814	 -0.15446	 30.69208	709.94299	 23.40	
  6.787	-110.754	 30.26157	 14.14844	 18.47428	 10.58274	 22.45686	 -0.17414	 30.74519	709.90302	 23.40	
  6.800	-96.985	 30.25358	 15.54735	 17.09260	 10.24432	 22.81697	 -0.22048	 30.74098	709.82501	 23.40	
  6.800	-83.015	 30.22892	 17.06965	 15.61157	 10.24730	 22.79382	 -0.25687	 30.71314	709.89600	 23.40	
  6.787	-69.246	 30.23867	 18.47652	 14.17787	 10.59468	 22.43592	 -0.25977	 30.71040	710.00000	 23.40	
  6.792	-55.409	 30.23573	 19.76738	 12.87968	 11.21385	 21.71008	 -0.24323	 30.70364	709.96503	 23.40	
  6.795	-41.617	 30.27177	 20.86394	 11.89619	 12.12769	 20.71871	 -0.20870	 30.72558	709.96503	 23.40	
  6.808	-27.689	 30.27760	 21.77457	 11.15062	 13.23370	 19.47803	 -0.18556	 30.72089	709.96503	 23.40	
  6.796	-13.771	 30.28297	 22.34180	 10.71515	 14.64896	 18.04234	 -0.15114	 30.72859	709.86499	 23.40	
  6.800	  0.000	 30.24555	 22.51900	 10.57228	 16.02536	 16.56545	 -0.13421	 30.67226	709.86499	 23.30	
  6.796	 13.771	 30.30924	 22.41532	 10.75138	 17.42626	 15.22680	 -0.10097	 30.74093	709.97699	 23.40	
  6.808	 27.689	 30.25951	 21.86197	 11.19167	 18.88453	 13.84750	 -0.09705	 30.68323	709.82300	 23.30	
  6.795	 41.617	 30.33743	 21.04233	 11.98545	 20.16533	 12.87892	 -0.07407	 30.75142	709.81897	 23.30	
  6.792	 55.409	 30.31798	 19.87875	 12.98823	 21.16244	 11.98729	 -0.08011	 30.72857	709.96100	 23.30	
  6.787	 69.246	 30.26565	 18.63718	 14.26224	 21.84883	 11.33895	 -0.08002	 30.66693	709.90997	 23.30	
  6.800	 83.015	 30.32099	 17.25282	 15.68611	 22.26442	 11.03071	 -0.11872	 30.71043	709.79199	 23.30	
  6.800	 96.985	 30.32246	 15.72845	 17.14569	 22.25492	 11.03902	 -0.13615	 30.70597	709.91302	 23.30	
  6.787	110.754	 30.32277	 14.30631	 18.50816	 21.85756	 11.39125	 -0.13324	 30.69486	709.93701	 23.30	
  6.792	124.591	 30.32444	 13.18945	 19.76776	 21.14147	 12.00225	 -0.13380	 30.69896	710.06403	 23.30	
  6.795	138.383	 30.31942	 12.19576	 20.91832	 20.11762	 12.87853	 -0.08807	 30.69799	709.89600	 23.30	
  6.808	152.311	 30.30676	 11.38347	 21.77754	 18.85496	 13.94051	 -0.10255	 30.69741	709.97998	 23.30	
  6.796	166.229	 30.30722	 10.88508	 22.31622	 17.40118	 15.24350	 -0.09527	 30.70453	709.87903	 23.30	
  8.491	168.704	 29.93949	  9.08784	 23.56620	 16.96719	 14.82704	 -0.35293	 30.69676	709.92102	 23.30	
  8.502	157.493	 29.94702	  9.49582	 23.11852	 18.53398	 13.46209	 -0.32786	 30.69566	709.84698	 23.30	
  8.494	146.194	 29.97219	 10.16908	 22.36827	 19.93310	 12.30906	 -0.33284	 30.71227	709.89001	 23.30	
  8.495	135.039	 29.96678	 11.00566	 21.38788	 21.12218	 11.24877	 -0.36048	 30.70026	709.79700	 23.30	
  8.487	123.723	 29.96392	 12.01974	 20.18979	 22.13649	 10.40845	 -0.36191	 30.69703	709.92700	 23.30	
  8.492	112.575	 29.97763	 13.26593	 18.78313	 22.91549	  9.81668	 -0.38847	 30.71394	709.66803	 23.30	
  8.510	101.220	 29.93754	 14.56822	 17.49841	 23.37167	  9.40578	 -0.40144	 30.66737	709.96600	 23.30	
  8.500	 90.000	 29.95573	 16.12597	 16.05749	 23.53718	  9.28393	 -0.36890	 30.70265	710.07800	 23.30	
  8.510	 78.780	 29.90887	 17.60756	 14.53524	 23.36994	  9.38352	 -0.32965	 30.66773	709.88702	 23.30	
  8.492	 67.425	 29.94067	 19.03161	 13.08191	 22.90691	  9.80689	 -0.29804	 30.70512	710.06201	 23.30	
  8.487	 56.277	 29.87778	 20.29296	 11.84232	 22.11298	 10.38807	 -0.28628	 30.66224	710.09003	 23.30	
  8.495	 44.961	 29.91415	 21.53503	 10.79539	 21.12766	 11.22438	 -0.29160	 30.70597	710.03003	 23.30	
  8.494	 33.806	 29.85663	 22.44174	  9.93186	 19.90546	 12.23410	 -0.29984	 30.66500	710.08698	 23.30	
  8.502	 22.507	 29.85250	 23.18094	  9.31212	 18.55822	 13.36644	 -0.33055	 30.66471	708.79999	 23.30	
  8.491	 11.296	 29.85471	 23.61811	  8.94422	 16.99312	 14.75720	 -0.34013	 30.67303	709.88397	 23.30	
  8.500	  0.000	 29.87811	 23.78427	  8.81382	 15.59750	 16.19295	 -0.36969	 30.70630	709.84198	 23.30	
  8.491	-11.296	 29.85012	 23.57183	  8.90339	 14.18286	 17.58483	 -0.38901	 30.67355	709.86401	 23.30	
  8.502	-22.507	 29.86430	 23.09508	  9.25664	 12.77103	 19.11583	 -0.41302	 30.69147	709.83899	 23.30	
  8.494	-33.806	 29.82843	 22.27531	  9.84658	 11.50401	 20.46880	 -0.43072	 30.66052	710.07800	 23.30	
  8.495	-44.961	 29.80985	 21.27184	 10.65792	 10.43840	 21.68395	 -0.46791	 30.65430	709.95203	 23.30	
  8.487	-56.277	 29.88101	 20.08194	 11.76063	  9.62716	 22.73225	 -0.50522	 30.72649	709.97198	 23.20	
  8.492	-67.425	 29.82787	 18.83938	 12.95048	  8.98051	 23.42298	 -0.54819	 30.68002	709.90399	 23.20	
  8.510	-78.780	 29.80904	 17.38817	 14.44009	  8.54664	 23.89694	 -0.55523	 30.68453	710.04700	 23.20	
  8.500	-90.000	 29.79132	 15.86615	 15.90621	  8.40202	 24.02282	 -0.51613	 30.65564	709.96802	 23.20	
  8.510	-101.220	 29.81336	 14.36145	 17.38321	  8.54598	 23.89207	 -0.46368	 30.67723	710.12701	 23.20	
  8.492	-112.575	 29.84047	 13.05340	 18.80198	  8.97245	 23.43884	 -0.39784	 30.70541	710.14801	 23.20	
  8.487	-123.723	 29.82784	 11.84483	 20.08433	  9.55754	 22.68196	 -0.37621	 30.68468	710.01001	 23.20	
  8.495	-135.039	 29.85116	 10.78718	 21.30153	 10.40404	 21.69096	 -0.34959	 30.70256	710.02197	 23.20	
  8.494	-146.194	 29.84335	  9.94041	 22.26796	 11.48529	 20.49574	 -0.33646	 30.67496	709.97998	 23.20	
  8.502	-157.493	 29.88170	  9.34888	 23.06546	 12.75328	 19.14421	 -0.32442	 30.69084	709.96899	 23.20	
  8.491	-168.704	 29.83264	  8.98949	 23.47289	 13.98564	 17.62174	 -0.33771	 30.62719	709.91803	 23.20	
  8.500	180.000	 29.88746	  8.89034	 23.68624	 15.48640	 16.24440	 -0.35115	 30.66273	709.96002	 23.20	
 10.200	180.000	 29.39914	  6.88995	 24.82362	 15.01196	 15.79142	 -0.63187	 30.64123	709.97400	 23.20	
 10.191	-170.497	 29.42030	  7.00971	 24.70230	 13.61406	 17.18491	 -0.61480	 30.67802	710.00000	 23.20	
 10.210	-161.034	 29.39730	  7.31317	 24.31045	 12.25163	 18.70243	 -0.58258	 30.68663	710.00800	 23.20	
 10.194	-151.526	 29.33255	  7.83809	 23.59965	 10.88575	 20.11429	 -0.56298	 30.64534	710.05499	 23.20	
 10.190	-142.105	 29.32467	  8.55772	 22.71079	  9.68268	 21.39753	 -0.57788	 30.65624	710.05603	 23.20	
 10.215	-132.646	 29.31749	  9.48299	 21.63410	  8.64658	 22.58280	 -0.59896	 30.66693	709.96600	 23.20	
 10.203	-123.092	 29.32580	 10.61869	 20.38882	  7.80962	 23.60176	 -0.61394	 30.68721	709.91998	 23.20	
 10.192	-113.678	 29.29826	 11.84847	 19.02971	  7.18173	 24.36564	 -0.63942	 30.66665	709.87598	 23.20	
 10.208	-104.249	 29.26327	 13.14585	 17.65915	  6.73139	 24.89266	 -0.71686	 30.65370	709.92102	 23.20	
 10.210	-94.801	 29.27870	 14.54705	 16.19272	  6.48263	 25.18178	 -0.79638	 30.67009	709.90399	 23.20	
 10.210	-85.199	 29.28306	 16.14190	 14.64511	  6.49288	 25.17912	 -0.84905	 30.67288	709.97998	 23.20	
 10.208	-75.751	 29.27678	 17.63880	 13.07122	  6.74712	 24.91212	 -0.85672	 30.65314	710.06201	 23.20	
 10.192	-66.322	 29.25393	 19.02958	 11.74623	  7.19586	 24.35656	 -0.83550	 30.60872	709.95398	 23.20	
 10.203	-56.908	 29.28193	 20.31578	 10.52921	  7.84922	 23.61583	 -0.78287	 30.62434	709.95203	 23.20	
 10.215	-47.354	 29.28119	 21.58689	  9.41160	  8.68720	 22.60546	 -0.73328	 30.62571	709.88898	 23.20	
 10.190	-37.895	 29.30109	 22.68175	  8.50105	  9.70703	 21.43057	 -0.69263	 30.63981	708.56097	 23.20	
 10.194	-28.474	 29.31997	 23.61357	  7.78718	 10.90458	 20.11637	 -0.66298	 30.64741	709.91302	 23.20	
 10.210	-18.966	 29.34277	 24.33919	  7.26417	 12.23868	 18.67516	 -0.64987	 30.67466	710.04102	 23.20	
 10.191	 -9.503	 29.29390	 24.70934	  7.00152	 13.55139	 17.09617	 -0.62397	 30.61073	710.00500	 23.20	
 10.200	  0.000	 29.32853	 24.92358	  6.91172	 15.02527	 15.64390	 -0.61837	 30.63830	709.97699	 23.20	
 10.191	  9.503	 29.36757	 24.82837	  7.05107	 16.58047	 14.14290	 -0.60224	 30.67731	709.91498	 23.20	
 10.210	 18.966	 29.29047	 24.40791	  7.33227	 18.06316	 12.82402	 -0.58104	 30.60944	710.02399	 23.20	
 10.194	 28.474	 29.32869	 23.79854	  7.89347	 19.53847	 11.60035	 -0.54546	 30.64050	709.97498	 23.20	
 10.190	 37.895	 29.32075	 22.90764	  8.60919	 20.82047	 10.45964	 -0.52874	 30.61610	709.85797	 23.20	
 10.215	 47.354	 29.36363	 21.88696	  9.51382	 22.05296	  9.47976	 -0.50736	 30.66900	709.99103	 23.20	
 10.203	 56.908	 29.33992	 20.61228	 10.61896	 23.01936	  8.69475	 -0.50201	 30.61198	709.89899	 23.20	
 10.192	 66.322	 29.38655	 19.30046	 11.87011	 23.82084	  8.10408	 -0.50670	 30.63664	708.23700	 23.20	
 10.208	 75.751	 29.41005	 17.93091	 13.20137	 24.39206	  7.65797	 -0.56479	 30.65561	709.88898	 23.10	
 10.210	 85.199	 29.38291	 16.43192	 14.74283	 24.65115	  7.38623	 -0.63184	 30.62249	709.69501	 23.20	
 10.210	 94.801	 29.40302	 14.85978	 16.28963	 24.65534	  7.39913	 -0.67713	 30.62520	709.96100	 23.20	
 10.208	104.249	 29.43903	 13.42076	 17.77137	 24.38410	  7.67628	 -0.68813	 30.63971	708.26898	 23.10	
 10.192	113.678	 29.43849	 12.08944	 19.04841	 23.81773	  8.10780	 -0.65907	 30.62504	709.88202	 23.20	
 10.203	123.092	 29.42077	 10.80212	 20.45103	 23.02912	  8.70043	 -0.63515	 30.60053	709.37799	 23.10	
 10.215	132.646	 29.39998	  9.64759	 21.67916	 22.01420	  9.47583	 -0.62457	 30.60032	709.85602	 23.10	
 10.190	142.105	 29.41895	  8.77015	 22.76868	 20.83965	 10.51669	 -0.59458	 30.62741	709.90997	 23.10	
 10.194	151.526	 29.42793	  8.07583	 23.65724	 19.53575	 11.68877	 -0.57622	 30.63128	709.91803	 23.10	
 10.210	161.034	 29.45162	  7.49650	 24.34247	 18.07331	 12.95290	 -0.58662	 30.66764	709.89600	 23.10	
 10.191	170.497	 29.39116	  7.15323	 24.67746	 16.50567	 14.30055	 -0.61338	 30.61537	708.13397	 23.10	
 11.899	171.783	 28.84921	  4.99305	 25.88973	 16.02954	 13.72562	 -0.88036	 30.65067	708.30499	 23.10	
 11.890	163.610	 28.84893	  5.37711	 25.47380	 17.49073	 12.39433	 -0.84232	 30.61942	709.74902	 23.10	
 11.889	155.445	 28.87830	  5.88521	 24.88630	 19.06406	 11.10892	 -0.81261	 30.64571	708.09998	 23.10	
 11.909	147.299	 28.86664	  6.52762	 24.10764	 20.46698	  9.83366	 -0.82910	 30.64118	708.28003	 23.10	
 11.902	139.148	 28.85208	  7.34798	 23.11553	 21.72009	  8.71943	 -0.85079	 30.61830	708.24902	 23.10	
 11.894	130.867	 28.89826	  8.40657	 21.97288	 22.91043	  7.77250	 -0.86322	 30.64063	708.34802	 23.10	
 11.897	122.732	 28.87140	  9.52918	 20.72634	 23.89505	  6.95557	 -0.89163	 30.62694	709.71002	 23.10	
 11.903	114.597	 28.86057	 10.79853	 19.31120	 24.70533	  6.30555	 -0.92097	 30.62569	710.05103	 23.10	
 11.893	106.346	 28.85687	 12.20423	 17.97552	 25.30887	  5.85757	 -0.95553	 30.62468	709.91302	 23.10	
 11.892	 98.155	 28.85137	 13.57836	 16.52632	 25.67858	  5.53868	 -0.96997	 30.63007	709.95801	 23.10	
 11.900	 90.000	 28.79636	 15.11330	 14.97784	 25.77756	  5.41466	 -0.93938	 30.59636	710.02197	 23.10	
 11.892	 81.845	 28.81419	 16.68336	 13.37870	 25.67855	  5.56111	 -0.86920	 30.63255	708.36499	 23.10	
 11.893	 73.654	 28.83065	 18.18174	 11.98945	 25.30890	  5.87304	 -0.77546	 30.66229	709.95099	 23.10	
 11.903	 65.403	 28.75759	 19.56644	 10.62847	 24.66051	  6.33593	 -0.70965	 30.60510	709.36902	 23.10	
 11.897	 57.268	 28.74771	 20.87431	  9.37991	 23.86414	  6.95508	 -0.71335	 30.60905	708.23297	 23.10	
 11.894	 49.133	 28.78587	 22.15796	  8.24309	 22.91095	  7.77466	 -0.72597	 30.66474	710.00000	 23.10	
 11.902	 40.852	 28.71910	 23.27118	  7.10326	 21.72018	  8.67762	 -0.76641	 30.62531	709.30701	 23.10	
 11.909	 32.701	 28.70409	 24.23749	  6.33118	 20.42256	  9.75058	 -0.78547	 30.61732	709.31299	 23.10	
 11.889	 24.555	 28.71081	 25.01039	  5.76900	 19.06030	 10.99117	 -0.81757	 30.62740	709.89502	 23.10	
 11.890	 16.390	 28.69011	 25.56867	  5.33736	 17.51782	 12.29103	 -0.83599	 30.60359	708.59998	 23.10	
 11.899	  8.217	 28.70070	 25.92646	  5.06362	 16.04456	 13.57579	 -0.85867	 30.61180	709.14099	 23.10	
 11.900	  0.000	 28.71174	 26.03671	  4.95380	 14.48772	 15.17650	 -0.86302	 30.62436	708.40399	 23.10	
 11.899	 -8.217	 28.71765	 25.88807	  5.05336	 13.07751	 16.57421	 -0.87197	 30.63107	708.53900	 23.10	
 11.890	-16.390	 28.70334	 25.46222	  5.27614	 11.66887	 18.08588	 -0.86351	 30.61297	709.62000	 23.10	
 11.889	-24.555	 28.69525	 24.81511	  5.63005	 10.29655	 19.59039	 -0.89044	 30.61620	708.36401	 23.10	
 11.909	-32.701	 28.68307	 23.99983	  6.18646	  9.01773	 20.98241	 -0.89951	 30.61197	710.00598	 23.10	
 11.902	-40.852	 28.70070	 23.00590	  6.93694	  7.89673	 22.26805	 -0.93161	 30.61847	710.00500	 23.10	
 11.894	-49.133	 28.69463	 21.80632	  7.96863	  6.86537	 23.44112	 -0.97859	 30.62771	709.89502	 23.10	
 11.897	-57.268	 28.68632	 20.53988	  9.25039	  5.94646	 24.42561	 -1.02344	 30.62830	709.89502	 23.10	
 11.903	-65.403	 28.67176	 19.24501	 10.48691	  5.31787	 25.20920	 -1.06549	 30.62281	709.94598	 23.10	
 11.893	-73.654	 28.66726	 17.82513	 11.79178	  4.93120	 25.74523	 -1.08554	 30.62598	710.07001	 23.10	
 11.892	-81.845	 28.64459	 16.29465	 13.22705	  4.67370	 26.05280	 -1.07775	 30.60302	710.09198	 23.10	
 11.900	-90.000	 28.63576	 14.75001	 14.81397	  4.57942	 26.16507	 -1.05642	 30.60066	710.05902	 23.10	
 11.892	-98.155	 28.66853	 13.31424	 16.35874	  4.67922	 26.09491	 -0.99749	 30.64805	710.03302	 23.10	
 11.893	-106.346	 28.64655	 11.90594	 17.81429	  4.90465	 25.74483	 -0.91983	 30.63618	709.99402	 23.10	
 11.903	-114.597	 28.63182	 10.54968	 19.14876	  5.31166	 25.15982	 -0.85076	 30.61221	709.96802	 23.10	
 11.897	-122.732	 28.63517	  9.29574	 20.53784	  5.99633	 24.35126	 -0.81006	 30.59582	710.04401	 23.10	
 11.894	-130.867	 28.68460	  8.15933	 21.82334	  6.86335	 23.39266	 -0.80688	 30.62159	710.13397	 23.10	
 11.902	-139.148	 28.68119	  7.01604	 23.00021	  7.87401	 22.21284	 -0.80095	 30.59824	710.12598	 23.10	
 11.909	-147.299	 28.70765	  6.19547	 23.99702	  9.01001	 20.96714	 -0.80567	 30.60968	710.21301	 23.10	
 11.889	-155.445	 28.75659	  5.58210	 24.79746	 10.29780	 19.63036	 -0.82333	 30.62295	710.19702	 23.10	
 11.890	-163.610	 28.76110	  5.14438	 25.41037	 11.65733	 18.13336	 -0.85475	 30.61486	709.99402	 23.10	
 11.899	-171.783	 28.78108	  4.92886	 25.80196	 13.05382	 16.70617	 -0.89959	 30.61931	709.74103	 23.10	
 11.900	180.000	 28.83724	  4.89192	 25.99405	 14.43006	 15.26429	 -0.90743	 30.65331	710.01599	 23.10	
 13.600	180.000	 28.10642	  3.15662	 26.87647	 13.80439	 14.61286	 -1.15041	 30.59837	710.15100	 23.10	
 13.608	-172.853	 28.10864	  3.20195	 26.79116	 12.45409	 16.10969	 -1.15048	 30.62579	710.10101	 23.10	
 13.611	-165.583	 28.09582	  3.40429	 26.47536	 11.01134	 17.53561	 -1.13220	 30.62950	710.02502	 23.10	
 13.601	-158.353	 28.07937	  3.71496	 25.92335	  9.59903	 19.04209	 -1.07986	 30.63420	708.54401	 23.10	
 13.609	-151.210	 28.01577	  4.15303	 25.15917	  8.28385	 20.41435	 -1.04634	 30.58757	710.17401	 23.10	
 13.611	-143.999	 28.01744	  4.79526	 24.26840	  7.05631	 21.76337	 -1.03795	 30.61314	710.11700	 23.10	
 13.601	-136.825	 27.99224	  5.66331	 23.19324	  5.89640	 23.00949	 -1.00721	 30.60193	708.29199	 23.10	
 13.596	-129.640	 27.97694	  6.65845	 21.98384	  5.02659	 24.11281	 -0.99970	 30.60911	709.92700	 23.10	
