FileType=PCF
NHL=14
Date=08/28/17	11:52:29
Facility=APL
Serial=16328-10
Customer=NASA
NP=6
Mach=0.100000
Calibration=1:1
CalPts=490
TstPts=95
PortNumbering=AP Standard
Units=Torr C m/s kg/m^3 deg mm 
Theta[deg]	Phi[deg]	P1[Torr]	P2[Torr]	P3[Torr]	P4[Torr]	P5[Torr]	P6[Torr]	Pt[Torr]	Ps[Abs,Torr]	Ts[C]	
  0.000	  0.000	  4.89244	  2.72018	  2.70671	  2.67414	  2.78170	  0.03270	  4.88910	707.76001	 24.10	
  1.691	128.401	  4.90260	  2.58649	  2.84564	  2.85134	  2.60858	  0.03099	  4.89969	707.81299	 24.10	
  1.692	 77.194	  4.90234	  2.77462	  2.65708	  2.89686	  2.56628	  0.03084	  4.89875	707.65601	 24.10	
  1.699	 26.182	  4.90577	  2.92442	  2.50961	  2.77917	  2.68504	  0.02973	  4.90134	707.70801	 24.10	
  1.699	-26.182	  4.90430	  2.91220	  2.50629	  2.58151	  2.86324	  0.02510	  4.90095	707.63501	 24.10	
  1.692	-77.194	  4.89886	  2.75883	  2.64366	  2.46150	  2.98143	  0.02436	  4.89414	707.66901	 24.10	
  1.691	-128.401	  4.91019	  2.57664	  2.84399	  2.51026	  2.93989	  0.02694	  4.90607	707.69501	 24.10	
  1.700	180.000	  4.90140	  2.49846	  2.92666	  2.67235	  2.77954	  0.02978	  4.89568	707.65503	 24.10	
  3.400	180.000	  4.90366	  2.25362	  3.14961	  2.64048	  2.75362	  0.01692	  4.90677	707.70599	 24.10	
  3.388	-152.325	  4.90701	  2.29325	  3.09376	  2.43710	  2.96371	  0.01555	  4.91177	707.68903	 24.10	
  3.397	-124.529	  4.88687	  2.41649	  2.92729	  2.26905	  3.12465	  0.01367	  4.89460	707.74597	 24.10	
  3.399	-96.763	  4.89577	  2.62089	  2.71959	  2.20104	  3.21476	  0.00794	  4.90308	707.66302	 24.00	
  3.394	-69.283	  4.89868	  2.84282	  2.50461	  2.22715	  3.18950	  0.00591	  4.90450	707.75702	 24.00	
  3.400	-41.398	  4.89474	  3.03148	  2.32972	  2.34146	  3.05247	  0.00639	  4.89904	707.71399	 24.00	
  3.401	-14.021	  4.89762	  3.14472	  2.24207	  2.52601	  2.85984	  0.00772	  4.90063	707.83002	 24.00	
  3.401	 14.021	  4.89709	  3.14908	  2.24837	  2.75435	  2.63571	  0.01359	  4.89920	707.81299	 24.00	
  3.400	 41.398	  4.89340	  3.04082	  2.34323	  2.94388	  2.45382	  0.01648	  4.89390	707.60498	 24.00	
  3.394	 69.283	  4.89030	  2.85045	  2.51182	  3.07232	  2.34424	  0.01662	  4.89188	707.74298	 24.00	
  3.399	 96.763	  4.89048	  2.63122	  2.72684	  3.10119	  2.32051	  0.01637	  4.89113	707.71503	 24.00	
  3.397	124.529	  4.89761	  2.44551	  2.93274	  3.02412	  2.38804	  0.01593	  4.89464	707.76202	 24.00	
  3.388	152.325	  4.90321	  2.30909	  3.08826	  2.85990	  2.53902	  0.01491	  4.90723	707.76801	 24.00	
  5.099	161.165	  4.88286	  2.01912	  3.33472	  2.83791	  2.48640	 -0.00199	  4.90457	707.75897	 24.00	
  5.109	142.013	  4.87946	  2.12430	  3.21200	  3.05057	  2.29045	 -0.00301	  4.90132	707.76202	 24.00	
  5.095	123.033	  4.85690	  2.27740	  3.01674	  3.19912	  2.14386	 -0.00495	  4.87792	707.83600	 24.00	
  5.105	104.191	  4.87736	  2.48879	  2.81078	  3.31466	  2.06925	 -0.00512	  4.89836	707.79401	 24.00	
  5.093	 85.207	  4.88152	  2.72090	  2.58165	  3.33606	  2.05659	 -0.00271	  4.90140	707.68402	 24.00	
  5.104	 66.290	  4.88110	  2.95112	  2.36099	  3.27615	  2.10503	  0.00113	  4.90308	707.75098	 24.00	
  5.094	 47.331	  4.86697	  3.14532	  2.17291	  3.12845	  2.21752	  0.00028	  4.88897	707.77698	 24.00	
  5.089	 28.397	  4.87614	  3.29924	  2.04454	  2.94514	  2.38639	 -0.00140	  4.90196	707.73401	 24.00	
  5.096	  9.576	  4.86111	  3.36938	  1.96689	  2.71167	  2.58975	 -0.00656	  4.88802	707.71997	 24.00	
  5.096	 -9.576	  4.87655	  3.37648	  1.97018	  2.48308	  2.83459	 -0.01044	  4.90369	707.74597	 24.00	
  5.089	-28.397	  4.87192	  3.28782	  2.03640	  2.27138	  3.05273	 -0.01391	  4.89948	707.80200	 24.00	
  5.094	-47.331	  4.88021	  3.13887	  2.16955	  2.10039	  3.25157	 -0.01772	  4.90971	707.77600	 24.00	
  5.104	-66.290	  4.86730	  2.92518	  2.34693	  1.97541	  3.38052	 -0.01882	  4.89866	707.74597	 24.00	
  5.093	-85.207	  4.86005	  2.68921	  2.56160	  1.92029	  3.43547	 -0.01798	  4.88763	707.69202	 24.00	
  5.105	-104.191	  4.87182	  2.46262	  2.80313	  1.93932	  3.42426	 -0.01197	  4.90018	707.76703	 24.00	
  5.095	-123.033	  4.87703	  2.26224	  3.02736	  2.02915	  3.32376	 -0.00716	  4.90632	707.88000	 24.00	
  5.109	-142.013	  4.86229	  2.09744	  3.20032	  2.17138	  3.14535	 -0.00308	  4.89092	707.78998	 24.00	
  5.099	-161.165	  4.87030	  2.00267	  3.32710	  2.37395	  2.93510	 -0.00274	  4.89716	707.88300	 24.00	
  5.100	180.000	  4.86601	  1.97268	  3.36396	  2.59616	  2.70176	 -0.00214	  4.89036	707.73401	 24.00	
  6.800	180.000	  4.84016	  1.69523	  3.59077	  2.55190	  2.66025	 -0.03051	  4.90225	707.83600	 24.00	
  6.796	-166.229	  4.83342	  1.71260	  3.55684	  2.32500	  2.88630	 -0.02735	  4.89832	707.89502	 24.00	
  6.808	-152.311	  4.82145	  1.77636	  3.46020	  2.11125	  3.10164	 -0.02659	  4.88935	707.82202	 24.00	
  6.795	-138.383	  4.82520	  1.89580	  3.32018	  1.93038	  3.30812	 -0.03149	  4.89579	707.70300	 24.00	
  6.792	-124.591	  4.81706	  2.05069	  3.13133	  1.78604	  3.46729	 -0.03496	  4.89075	707.67297	 24.00	
  6.787	-110.754	  4.81619	  2.24232	  2.91724	  1.69138	  3.58016	 -0.03834	  4.88826	707.77600	 24.00	
  6.800	-96.985	  4.81038	  2.45664	  2.68715	  1.63943	  3.63819	 -0.04666	  4.88531	707.75403	 24.00	
  6.800	-83.015	  4.82637	  2.69994	  2.46001	  1.64470	  3.65116	 -0.05295	  4.90089	707.77698	 24.00	
  6.787	-69.246	  4.82506	  2.92619	  2.24380	  1.69602	  3.58789	 -0.05006	  4.89635	707.83197	 24.00	
  6.792	-55.409	  4.81526	  3.13567	  2.04567	  1.78747	  3.46941	 -0.04809	  4.88724	707.72803	 24.00	
  6.795	-41.617	  4.84016	  3.33728	  1.89678	  1.93839	  3.32407	 -0.05028	  4.91165	707.73499	 24.00	
  6.808	-27.689	  4.82761	  3.47849	  1.77105	  2.11375	  3.11397	 -0.04269	  4.89835	707.78998	 24.00	
  6.796	-13.771	  4.83607	  3.57420	  1.70194	  2.32577	  2.89547	 -0.03780	  4.90407	707.78497	 24.00	
  6.800	  0.000	  4.83501	  3.60661	  1.68018	  2.54968	  2.66741	 -0.03700	  4.90315	707.81799	 24.00	
  6.796	 13.771	  4.81999	  3.57058	  1.70094	  2.77478	  2.43422	 -0.03359	  4.88508	707.77600	 24.00	
  6.808	 27.689	  4.83337	  3.49571	  1.77827	  3.00526	  2.23351	 -0.02752	  4.89802	707.82898	 24.00	
  6.795	 41.617	  4.82694	  3.34981	  1.90060	  3.20055	  2.05820	 -0.02536	  4.88913	707.87201	 23.90	
  6.792	 55.409	  4.81925	  3.16291	  2.05637	  3.35826	  1.91712	 -0.02434	  4.88026	707.94202	 23.90	
  6.787	 69.246	  4.84663	  2.96896	  2.26184	  3.49421	  1.83111	 -0.02385	  4.90664	707.84900	 23.90	
  6.800	 83.015	  4.83067	  2.72983	  2.46980	  3.54493	  1.77498	 -0.02710	  4.89133	707.72601	 23.90	
  6.800	 96.985	  4.83630	  2.50206	  2.70429	  3.54781	  1.77692	 -0.03204	  4.89658	707.84601	 23.90	
  6.787	110.754	  4.83551	  2.28484	  2.92919	  3.48549	  1.82551	 -0.03057	  4.89183	708.04102	 23.90	
  6.792	124.591	  4.84599	  2.09494	  3.14803	  3.37622	  1.92270	 -0.03126	  4.90309	708.07397	 23.90	
  6.795	138.383	  4.83127	  1.92805	  3.32191	  3.20374	  2.05543	 -0.03193	  4.89103	707.95099	 23.90	
  6.808	152.311	  4.83364	  1.80333	  3.46776	  3.00605	  2.22741	 -0.02803	  4.89402	707.91901	 23.90	
  6.796	166.229	  4.83866	  1.72747	  3.55736	  2.78523	  2.43530	 -0.02785	  4.90006	707.93903	 23.90	
  8.491	168.704	  4.76537	  1.43389	  3.75083	  2.72276	  2.35764	 -0.06393	  4.88396	707.79102	 23.90	
  8.502	157.493	  4.77901	  1.49993	  3.69042	  2.96273	  2.14851	 -0.06087	  4.89309	707.88000	 23.90	
  8.494	146.194	  4.77118	  1.60273	  3.56247	  3.17535	  1.95372	 -0.06596	  4.88371	707.75897	 23.90	
  8.495	135.039	  4.78131	  1.74305	  3.41056	  3.37613	  1.79326	 -0.07047	  4.89474	707.81000	 23.90	
  8.487	123.723	  4.77115	  1.90893	  3.20831	  3.53301	  1.65569	 -0.06725	  4.88443	707.90302	 23.90	
  8.492	112.575	  4.77436	  2.10493	  2.99467	  3.65598	  1.56222	 -0.06847	  4.89049	707.81000	 23.90	
  8.510	101.220	  4.77352	  2.32293	  2.76062	  3.73201	  1.50185	 -0.07198	  4.88555	707.84698	 23.90	
  8.500	 90.000	  4.77929	  2.55974	  2.52737	  3.75813	  1.48751	 -0.06860	  4.89401	707.90100	 23.90	
  8.510	 78.780	  4.77674	  2.79665	  2.29487	  3.73606	  1.50378	 -0.06153	  4.89424	708.06897	 23.90	
  8.492	 67.425	  4.77086	  3.02680	  2.07229	  3.65344	  1.56498	 -0.05600	  4.88893	707.83801	 23.90	
  8.487	 56.277	  4.77864	  3.24771	  1.88292	  3.54131	  1.66333	 -0.05443	  4.90132	707.87000	 23.90	
  8.495	 44.961	  4.76695	  3.43512	  1.70795	  3.36976	  1.79363	 -0.05727	  4.89008	707.89398	 23.90	
  8.494	 33.806	  4.76822	  3.59413	  1.57473	  3.17637	  1.96109	 -0.05872	  4.89148	707.95599	 23.90	
  8.502	 22.507	  4.77009	  3.71391	  1.47424	  2.95904	  2.15489	 -0.06369	  4.89547	707.90302	 23.90	
  8.491	 11.296	  4.77331	  3.78672	  1.41506	  2.72947	  2.37296	 -0.06992	  4.89922	707.95898	 23.90	
  8.500	  0.000	  4.76090	  3.79877	  1.38942	  2.48177	  2.59950	 -0.07228	  4.88906	707.90302	 23.90	
  8.491	-11.296	  4.77130	  3.77668	  1.41201	  2.25344	  2.84120	 -0.06988	  4.89891	707.92499	 23.90	
  8.502	-22.507	  4.76751	  3.69654	  1.46725	  2.03365	  3.06893	 -0.07476	  4.89433	707.90802	 23.90	
  8.494	-33.806	  4.75367	  3.56109	  1.56241	  1.83059	  3.27956	 -0.08385	  4.88326	707.99597	 23.90	
  8.495	-44.961	  4.76356	  3.40274	  1.69836	  1.66511	  3.47792	 -0.08603	  4.89571	707.85303	 23.90	
  8.487	-56.277	  4.74772	  3.19435	  1.86310	  1.53010	  3.62169	 -0.08769	  4.87732	707.82397	 23.90	
  8.492	-67.425	  4.74653	  2.97717	  2.05594	  1.43177	  3.73990	 -0.08964	  4.87841	707.78497	 23.90	
  8.510	-78.780	  4.74741	  2.74294	  2.27393	  1.36706	  3.81732	 -0.09431	  4.88152	707.78400	 23.90	
  8.500	-90.000	  4.74956	  2.50569	  2.50711	  1.34879	  3.84094	 -0.09043	  4.88371	707.87701	 23.90	
  8.510	-101.220	  4.74962	  2.27404	  2.74593	  1.36780	  3.81880	 -0.07961	  4.88448	707.85498	 23.90	
  8.492	-112.575	  4.76381	  2.06229	  2.98728	  1.43373	  3.74915	 -0.07252	  4.89502	707.88000	 23.90	
  8.487	-123.723	  4.76267	  1.86920	  3.20376	  1.53162	  3.62856	 -0.06831	  4.89535	707.86902	 23.90	
  8.495	-135.039	  4.75651	  1.69954	  3.39395	  1.66132	  3.46605	 -0.06927	  4.88471	707.90601	 23.90	
  8.494	-146.194	  4.77869	  1.57718	  3.56874	  1.83970	  3.28667	 -0.06313	  4.90796	707.89099	 23.90	
  8.502	-157.493	  4.77648	  1.48063	  3.68962	  2.03937	  3.06392	 -0.05914	  4.90302	707.78699	 23.90	
  8.491	-168.704	  4.78062	  1.42782	  3.76419	  2.25736	  2.83447	 -0.06373	  4.90206	707.91901	 23.90	
  8.500	180.000	  4.78704	  1.41278	  3.79389	  2.49307	  2.60092	 -0.06915	  4.90748	707.81799	 23.90	
 10.200	180.000	  4.70335	  1.12277	  3.97475	  2.41554	  2.52169	 -0.10996	  4.89680	707.64398	 23.90	
 10.191	-170.497	  4.70025	  1.13403	  3.95145	  2.17955	  2.76005	 -0.10697	  4.89694	707.79401	 23.90	
 10.210	-161.034	  4.69578	  1.17837	  3.88568	  1.95332	  2.99308	 -0.09903	  4.89353	707.75299	 23.90	
 10.194	-151.526	  4.68651	  1.25844	  3.77356	  1.74145	  3.21892	 -0.09706	  4.89036	707.75403	 24.00	
 10.190	-142.105	  4.69757	  1.37125	  3.64150	  1.56124	  3.43865	 -0.10100	  4.90297	707.84900	 24.00	
 10.215	-132.646	  4.68318	  1.50478	  3.46060	  1.39798	  3.61682	 -0.10392	  4.89083	707.83899	 23.90	
 10.203	-123.092	  4.67600	  1.67384	  3.25323	  1.26599	  3.76923	 -0.10522	  4.88539	707.82501	 24.00	
 10.192	-113.678	  4.68952	  1.87340	  3.04060	  1.17073	  3.90517	 -0.10755	  4.90356	707.86902	 24.00	
 10.208	-104.249	  4.68749	  2.08565	  2.80603	  1.10151	  3.99168	 -0.11801	  4.90459	707.92499	 24.00	
 10.210	-94.801	  4.67878	  2.31047	  2.56150	  1.06647	  4.02793	 -0.13143	  4.89385	707.85199	 24.00	
 10.210	-85.199	  4.67439	  2.55191	  2.31396	  1.06434	  4.02549	 -0.14043	  4.88701	707.86401	 24.00	
 10.208	-75.751	  4.68425	  2.79817	  2.08890	  1.09928	  3.99343	 -0.13872	  4.89898	708.04401	 24.00	
 10.192	-66.322	  4.68247	  3.03099	  1.87526	  1.16904	  3.90519	 -0.13233	  4.89497	707.93597	 24.00	
 10.203	-56.908	  4.68968	  3.25867	  1.68091	  1.26995	  3.78736	 -0.12864	  4.90054	707.93201	 24.00	
 10.215	-47.354	  4.68071	  3.45876	  1.50436	  1.39807	  3.62394	 -0.12511	  4.88778	708.02100	 24.00	
 10.190	-37.895	  4.69501	  3.64323	  1.36834	  1.56079	  3.44765	 -0.12204	  4.90070	707.98199	 24.00	
 10.194	-28.474	  4.68998	  3.78662	  1.25389	  1.74196	  3.23632	 -0.11820	  4.89844	707.84698	 24.00	
 10.210	-18.966	  4.68121	  3.89013	  1.16781	  1.94753	  2.99853	 -0.11048	  4.88758	707.86298	 24.00	
 10.191	 -9.503	  4.69299	  3.96623	  1.12389	  2.17551	  2.76990	 -0.10959	  4.89698	707.84399	 24.00	
 10.200	  0.000	  4.68270	  3.98434	  1.10312	  2.40562	  2.52729	 -0.10981	  4.88791	707.91498	 24.00	
 10.191	  9.503	  4.69791	  3.98016	  1.12572	  2.65815	  2.29927	 -0.11060	  4.90423	707.83197	 24.00	
 10.210	 18.966	  4.68437	  3.90997	  1.17175	  2.88787	  2.07105	 -0.10422	  4.88645	707.86102	 24.00	
 10.194	 28.474	  4.69553	  3.81588	  1.26088	  3.12499	  1.87164	 -0.09783	  4.89898	707.93201	 24.00	
 10.190	 37.895	  4.69566	  3.67844	  1.37443	  3.33860	  1.68827	 -0.09435	  4.89911	707.97699	 24.00	
 10.215	 47.354	  4.70678	  3.51595	  1.51790	  3.53824	  1.53096	 -0.09355	  4.90452	707.86902	 24.00	
 10.203	 56.908	  4.69475	  3.30393	  1.68909	  3.68556	  1.40141	 -0.09028	  4.89092	707.90900	 24.00	
 10.192	 66.322	  4.70656	  3.09052	  1.89132	  3.81568	  1.30955	 -0.08884	  4.89926	707.86902	 24.00	
 10.208	 75.751	  4.70721	  2.85758	  2.10325	  3.90390	  1.24014	 -0.09352	  4.89745	707.84698	 24.00	
 10.210	 85.199	  4.70134	  2.61466	  2.32955	  3.94164	  1.20313	 -0.10219	  4.89056	707.85498	 24.00	
 10.210	 94.801	  4.70943	  2.37251	  2.57729	  3.94830	  1.20410	 -0.11199	  4.89794	707.88397	 24.00	
 10.208	104.249	  4.69685	  2.13628	  2.81001	  3.89377	  1.23385	 -0.11233	  4.88210	707.89398	 24.00	
 10.192	113.678	  4.70869	  1.92736	  3.04985	  3.81357	  1.30475	 -0.10791	  4.89295	708.04303	 24.00	
 10.203	123.092	  4.70646	  1.72634	  3.26981	  3.69227	  1.39630	 -0.10758	  4.89325	707.87000	 24.00	
 10.215	132.646	  4.71537	  1.55080	  3.47902	  3.54236	  1.52187	 -0.11009	  4.90463	708.01599	 24.00	
 10.190	142.105	  4.71626	  1.41058	  3.65208	  3.34924	  1.68337	 -0.10786	  4.90318	707.91199	 24.00	
 10.194	151.526	  4.71870	  1.29145	  3.79693	  3.13687	  1.86705	 -0.10132	  4.90650	707.95599	 24.00	
 10.210	161.034	  4.70863	  1.19880	  3.89407	  2.90077	  2.06622	 -0.10030	  4.89944	707.76001	 24.00	
 10.191	170.497	  4.70668	  1.14660	  3.95408	  2.66107	  2.28680	 -0.10483	  4.89636	707.80798	 24.00	
 11.899	171.783	  4.61649	  0.85822	  4.13093	  2.57974	  2.19860	 -0.14712	  4.89950	707.90002	 24.00	
 11.890	163.610	  4.61565	  0.90338	  4.07297	  2.81881	  1.97454	 -0.14032	  4.89472	707.88000	 24.00	
 11.889	155.445	  4.61482	  0.97708	  3.97967	  3.05298	  1.76502	 -0.13906	  4.89301	707.90100	 24.00	
 11.909	147.299	  4.62808	  1.07996	  3.87000	  3.28839	  1.57554	 -0.14292	  4.90399	707.96997	 24.00	
 11.902	139.148	  4.61241	  1.20350	  3.69885	  3.48414	  1.39940	 -0.14477	  4.88621	707.82397	 24.00	
 11.894	130.867	  4.62586	  1.36494	  3.52254	  3.67510	  1.26003	 -0.14708	  4.89987	707.80499	 24.00	
 11.897	122.732	  4.62298	  1.53621	  3.31582	  3.83201	  1.13540	 -0.14744	  4.89523	707.71503	 24.00	
 11.903	114.597	  4.61432	  1.72760	  3.08805	  3.95323	  1.03712	 -0.15193	  4.88770	707.80798	 24.00	
 11.893	106.346	  4.61589	  1.94505	  2.85026	  4.04582	  0.96808	 -0.15598	  4.88862	707.89801	 24.00	
 11.892	 98.155	  4.62372	  2.17681	  2.61490	  4.11175	  0.92809	 -0.15396	  4.90338	707.76001	 24.00	
 11.900	 90.000	  4.61113	  2.40955	  2.36748	  4.12232	  0.91238	 -0.14930	  4.89444	707.87500	 24.00	
 11.892	 81.845	  4.59964	  2.64513	  2.12521	  4.09139	  0.92539	 -0.13800	  4.88197	707.85303	 24.00	
 11.893	 73.654	  4.61164	  2.89585	  1.90482	  4.04774	  0.97124	 -0.12677	  4.89706	707.88800	 24.00	
 11.903	 65.403	  4.61241	  3.13393	  1.69021	  3.95775	  1.04182	 -0.12263	  4.90009	707.91199	 24.00	
 11.897	 57.268	  4.60864	  3.35319	  1.49683	  3.82783	  1.13861	 -0.12309	  4.89994	707.94000	 24.00	
 11.894	 49.133	  4.59043	  3.54401	  1.31923	  3.65563	  1.26009	 -0.12628	  4.87938	707.93597	 24.10	
 11.902	 40.852	  4.60085	  3.73577	  1.17019	  3.48124	  1.40723	 -0.13105	  4.89526	707.91101	 24.00	
 11.909	 32.701	  4.60236	  3.89258	  1.04505	  3.27690	  1.58200	 -0.13053	  4.89697	707.89099	 24.00	
 11.889	 24.555	  4.60122	  4.01145	  0.95027	  3.04847	  1.77624	 -0.13760	  4.89792	707.95898	 24.00	
 11.890	 16.390	  4.59652	  4.09605	  0.87899	  2.80893	  1.98433	 -0.14322	  4.89394	707.85602	 24.10	
 11.899	  8.217	  4.60218	  4.15292	  0.83612	  2.57263	  2.21064	 -0.14703	  4.90187	707.87701	 24.10	
 11.900	  0.000	  4.59791	  4.16310	  0.82049	  2.32473	  2.44728	 -0.14741	  4.89456	707.81299	 24.10	
 11.899	 -8.217	  4.59422	  4.13721	  0.83316	  2.08463	  2.68416	 -0.14141	  4.88985	707.85999	 24.10	
 11.890	-16.390	  4.59765	  4.07838	  0.87446	  1.86010	  2.92288	 -0.13998	  4.89535	707.91199	 24.10	
 11.889	-24.555	  4.59692	  3.98073	  0.94328	  1.64515	  3.15910	 -0.14633	  4.89571	707.82202	 24.10	
 11.909	-32.701	  4.58885	  3.84520	  1.03648	  1.44836	  3.37275	 -0.15125	  4.88785	707.80103	 24.10	
 11.902	-40.852	  4.59853	  3.69290	  1.16364	  1.28326	  3.58136	 -0.15666	  4.89884	707.79901	 24.10	
 11.894	-49.133	  4.59743	  3.50159	  1.31422	  1.13033	  3.76535	 -0.15913	  4.89965	707.86700	 24.10	
 11.897	-57.268	  4.58944	  3.28743	  1.48131	  1.00230	  3.91363	 -0.16136	  4.89308	707.81299	 24.00	
 11.903	-65.403	  4.58725	  3.06332	  1.67684	  0.90616	  4.03702	 -0.16797	  4.88971	707.93597	 24.00	
 11.893	-73.654	  4.59267	  2.82811	  1.89374	  0.83876	  4.13089	 -0.17396	  4.89943	707.84698	 24.00	
 11.892	-81.845	  4.59169	  2.58785	  2.11972	  0.79640	  4.18316	 -0.17993	  4.89846	707.82898	 24.10	
 11.900	-90.000	  4.57687	  2.33800	  2.34933	  0.77903	  4.18910	 -0.17531	  4.88468	707.85303	 24.10	
 11.892	-98.155	  4.58622	  2.10720	  2.59622	  0.79530	  4.17793	 -0.16765	  4.89487	707.85303	 24.10	
 11.893	-106.346	  4.59279	  1.88515	  2.84109	  0.83701	  4.12884	 -0.15530	  4.90257	707.87500	 24.10	
 11.903	-114.597	  4.58683	  1.66759	  3.07590	  0.90440	  4.03386	 -0.14298	  4.89425	707.79401	 24.10	
 11.897	-122.732	  4.58572	  1.47658	  3.29407	  1.00224	  3.90561	 -0.14000	  4.88973	707.81500	 24.10	
 11.894	-130.867	  4.59308	  1.31274	  3.50419	  1.13060	  3.75469	 -0.13804	  4.89669	707.87000	 24.10	
 11.902	-139.148	  4.58797	  1.16100	  3.68518	  1.28153	  3.56277	 -0.13670	  4.88669	707.95697	 24.10	
 11.909	-147.299	  4.60501	  1.04379	  3.85416	  1.45567	  3.37208	 -0.13766	  4.90127	707.84100	 24.10	
 11.889	-155.445	  4.58939	  0.95037	  3.96226	  1.64675	  3.13714	 -0.13972	  4.88267	707.83600	 24.10	
 11.890	-163.610	  4.60583	  0.88778	  4.06634	  1.86659	  2.91075	 -0.14612	  4.89378	707.78699	 24.10	
 11.899	-171.783	  4.60542	  0.84758	  4.12192	  2.09291	  2.67151	 -0.15204	  4.89133	707.75098	 24.10	
 11.900	180.000	  4.61452	  0.84010	  4.14702	  2.33271	  2.43714	 -0.15202	  4.89963	707.77698	 24.10	
 13.600	180.000	  4.50410	  0.55765	  4.29836	  2.23531	  2.33557	 -0.19314	  4.89266	707.77698	 24.10	
 13.608	-172.853	  4.50496	  0.56343	  4.28644	  2.00091	  2.57424	 -0.19460	  4.89869	707.80200	 24.10	
 13.611	-165.583	  4.49789	  0.59479	  4.23193	  1.76953	  2.81288	 -0.19095	  4.89302	707.89801	 24.10	
 13.601	-158.353	  4.49708	  0.65196	  4.15080	  1.54916	  3.05496	 -0.18285	  4.89923	707.89398	 24.10	
 13.609	-151.210	  4.50017	  0.73059	  4.04355	  1.35274	  3.28577	 -0.17744	  4.90325	707.74200	 24.10	
 13.611	-143.999	  4.48305	  0.83039	  3.88946	  1.16486	  3.48911	 -0.17518	  4.89071	707.81500	 24.10	
 13.601	-136.825	  4.48236	  0.95722	  3.72266	  1.00359	  3.68996	 -0.17167	  4.89095	707.62500	 24.10	
 13.596	-129.640	  4.46710	  1.10173	  3.52117	  0.85673	  3.85706	 -0.16966	  4.88029	707.80701	 24.10	
