FileType=PCF
NHL=14
Date=05/29/19	10:36:58
Facility=APL
Serial=16071-14
Customer=NASA
NP=6
Mach=0.550000
Calibration=1:1
CalPts=490
TstPts=95
PortNumbering=AP Standard
Units=Torr C m/s kg/m^3 deg mm 
Theta[deg]	Phi[deg]	P1[Torr]	P2[Torr]	P3[Torr]	P4[Torr]	P5[Torr]	P6[Torr]	Pt[Torr]	Ps[Abs,Torr]	Ts[C]	
  0.000	  0.000	160.93800	 70.18417	 80.13675	 73.04671	 74.76663	  5.69417	160.79778	702.40997	 29.10	
  1.691	128.401	160.91861	 64.54507	 85.46854	 78.42658	 68.80853	  5.60092	160.93094	702.41998	 29.10	
  1.692	 77.194	161.03825	 70.93742	 79.30753	 81.03125	 66.66356	  5.64058	160.94075	702.40002	 29.10	
  1.699	 26.182	161.10748	 77.05798	 73.58533	 77.61010	 70.36288	  5.65247	160.97792	702.41998	 29.20	
  1.699	-26.182	161.13646	 77.82655	 72.78522	 70.44933	 77.53660	  5.59748	160.99796	702.47998	 29.30	
  1.692	-77.194	161.20337	 72.78864	 77.49410	 65.41610	 82.41470	  5.56182	161.09668	702.42999	 29.30	
  1.691	-128.401	161.11430	 65.84259	 84.09444	 66.03004	 81.47928	  5.53031	161.10197	702.31000	 29.30	
  1.700	180.000	161.08252	 62.20181	 87.81083	 71.80929	 75.59959	  5.54819	161.14980	702.52002	 29.40	
  3.400	180.000	160.47830	 53.97021	 95.43920	 70.09553	 75.88777	  5.08607	161.18442	702.38000	 29.50	
  3.388	-152.325	160.66093	 56.60284	 92.53999	 63.17541	 83.24323	  5.13660	161.29529	702.46002	 29.60	
  3.397	-124.529	160.86424	 62.06921	 86.82289	 58.40937	 88.45660	  5.11552	161.32243	702.35999	 29.60	
  3.399	-96.763	161.10083	 69.42516	 79.58694	 56.86519	 90.52399	  5.09272	161.34602	702.39001	 29.70	
  3.394	-69.283	161.34195	 77.16336	 72.45804	 58.67411	 88.85136	  5.06600	161.39494	702.46002	 29.70	
  3.400	-41.398	161.53241	 83.45950	 66.70942	 63.82497	 83.79028	  5.13059	161.47153	702.42999	 29.80	
  3.401	-14.021	161.54764	 86.47556	 64.17406	 71.09709	 76.59935	  5.21907	161.45219	702.39001	 29.80	
  3.401	 14.021	161.63544	 85.45828	 65.18064	 79.10485	 68.73814	  5.34154	161.54933	702.41998	 29.90	
  3.400	 41.398	161.61780	 81.10625	 69.23805	 85.34673	 62.56301	  5.36480	161.56114	702.35999	 29.90	
  3.394	 69.283	161.51428	 73.92818	 76.15662	 88.94183	 59.17381	  5.36718	161.59270	702.34003	 30.00	
  3.399	 96.763	161.40268	 66.38139	 83.51498	 88.70416	 59.07839	  5.29666	161.66576	702.41998	 30.10	
  3.397	124.529	161.22990	 59.81256	 90.19440	 84.69488	 62.31089	  5.21085	161.71631	702.41998	 30.10	
  3.388	152.325	161.10483	 55.49994	 94.73714	 78.15562	 68.27785	  5.15698	161.73883	702.47998	 30.20	
  5.099	161.165	159.96814	 46.54569	102.38741	 76.29034	 67.89761	  4.49670	161.76012	702.39001	 30.20	
  5.109	142.013	160.13448	 49.53558	 99.47651	 83.92837	 60.96235	  4.53536	161.79442	702.41998	 30.30	
  5.095	123.033	160.39375	 54.58054	 94.12051	 90.37375	 55.55081	  4.60024	161.79834	702.34998	 30.30	
  5.105	104.191	160.69051	 61.21412	 87.41221	 94.96412	 51.86780	  4.69652	161.86243	702.34998	 30.40	
  5.093	 85.207	160.96758	 68.85952	 79.84930	 96.79232	 50.42648	  4.75334	161.86166	702.33002	 30.50	
  5.104	 66.290	161.25706	 76.76549	 72.06429	 96.15980	 51.39274	  4.84007	161.91895	702.29999	 30.60	
  5.094	 47.331	161.51384	 84.20837	 65.17524	 92.74377	 54.84201	  4.86921	161.95976	702.26001	 30.70	
  5.089	 28.397	161.66904	 90.00227	 60.05887	 86.87488	 60.17833	  4.84621	161.94652	702.34003	 30.70	
  5.096	  9.576	161.77794	 93.59972	 56.97112	 79.74423	 67.00566	  4.75022	161.96692	702.38000	 30.80	
  5.096	 -9.576	161.83972	 94.57363	 56.05541	 71.59625	 75.33417	  4.65100	162.02477	702.37000	 30.80	
  5.089	-28.397	161.78018	 92.66707	 57.56229	 63.69307	 83.15107	  4.52717	162.05522	702.34003	 30.90	
  5.094	-47.331	161.69475	 88.19496	 61.32324	 57.08933	 89.91196	  4.43068	162.07883	702.37000	 30.90	
  5.104	-66.290	161.48819	 81.54437	 66.98431	 52.18600	 95.28536	  4.43976	162.07483	702.33002	 31.00	
  5.093	-85.207	161.28421	 73.88460	 74.38635	 49.35395	 97.93055	  4.40861	162.13908	702.34003	 31.00	
  5.105	-104.191	161.03482	 65.89344	 82.01527	 49.01341	 98.09543	  4.46847	162.16129	702.39001	 31.10	
  5.095	-123.033	160.76833	 58.65548	 89.48098	 51.11115	 95.49087	  4.54312	162.16516	702.29999	 31.20	
  5.109	-142.013	160.58983	 52.56679	 96.04396	 55.25927	 90.60196	  4.54028	162.23184	702.34998	 31.20	
  5.099	-161.165	160.46205	 48.31893	100.78966	 61.35100	 83.95876	  4.57888	162.25172	702.34998	 31.20	
  5.100	180.000	160.43687	 46.30231	103.04429	 68.69934	 76.36356	  4.48151	162.27565	702.44000	 31.30	
  6.800	180.000	158.89203	 37.94234	109.91183	 66.46157	 75.94680	  3.94376	162.35262	702.28998	 31.30	
  6.796	-166.229	158.90802	 39.63145	107.99003	 59.21163	 83.53567	  4.07673	162.35722	702.35999	 31.40	
  6.808	-152.311	159.10582	 43.04845	104.36198	 52.89186	 90.58357	  4.09401	162.42943	702.37000	 31.40	
  6.795	-138.383	159.28664	 47.73950	 98.89471	 47.54849	 96.68062	  3.97750	162.42340	702.25000	 31.50	
  6.792	-124.591	159.54346	 53.64990	 92.52047	 43.71716	101.43089	  3.90914	162.43544	702.44000	 31.50	
  6.787	-110.754	159.88966	 60.62666	 85.38095	 41.35767	104.55142	  3.87512	162.48886	702.38000	 31.60	
  6.800	-96.985	160.12675	 67.80341	 77.87698	 40.49179	105.74961	  3.78462	162.44734	702.40002	 31.60	
  6.800	-83.015	160.54131	 75.65984	 70.10423	 41.60252	105.05968	  3.81038	162.53351	702.33002	 31.70	
  6.787	-69.246	160.84213	 83.20040	 63.56641	 44.21507	102.40643	  3.83645	162.52209	702.34003	 31.70	
  6.792	-55.409	161.06709	 90.13781	 57.65929	 48.30648	 97.96101	  3.84665	162.50504	702.32001	 31.80	
  6.795	-41.617	161.29884	 95.96309	 52.89817	 53.74850	 91.81351	  3.89306	162.55098	702.34003	 31.80	
  6.808	-27.689	161.50490	 99.67946	 49.54726	 60.12536	 84.98820	  3.98579	162.59047	702.37000	 31.90	
  6.796	-13.771	161.61467	101.85056	 47.88951	 67.84496	 77.26167	  4.13293	162.60606	702.37000	 31.90	
  6.800	  0.000	161.64838	102.10612	 47.89565	 76.04203	 69.08802	  4.16597	162.61989	702.22998	 32.00	
  6.796	 13.771	161.62018	100.07922	 49.64331	 83.61461	 61.92286	  4.23788	162.62283	702.35999	 32.00	
  6.808	 27.689	161.52623	 96.48844	 52.89526	 90.91179	 55.32824	  4.29834	162.66985	702.33002	 32.10	
  6.795	 41.617	161.36858	 90.99883	 57.69441	 96.83583	 49.80130	  4.24291	162.68500	702.40002	 32.10	
  6.792	 55.409	161.18062	 84.34418	 63.58252	101.22729	 45.73264	  4.22870	162.73076	702.45001	 32.20	
  6.787	 69.246	160.94547	 76.85082	 70.23076	103.72411	 43.28390	  4.20009	162.74538	702.39001	 32.20	
  6.800	 83.015	160.69543	 69.05289	 78.16451	104.57293	 42.43160	  4.10017	162.77570	702.40997	 32.30	
  6.800	 96.985	160.47635	 61.70430	 85.69949	103.43868	 43.25469	  4.07049	162.82741	702.50000	 32.30	
  6.787	110.754	160.17627	 54.57351	 92.83121	100.26955	 45.76870	  4.03597	162.81912	702.46997	 32.40	
  6.792	124.591	159.95250	 48.48901	 99.40209	 95.61026	 49.58133	  4.04766	162.86438	702.42999	 32.40	
  6.795	138.383	159.73671	 43.70554	104.61939	 89.25278	 54.87363	  4.04134	162.88737	702.46997	 32.40	
  6.808	152.311	159.59653	 40.17344	108.38168	 82.00222	 61.31874	  4.01161	162.91893	702.40997	 32.50	
  6.796	166.229	159.49065	 38.42640	110.21143	 74.35402	 68.28387	  3.93386	162.90187	702.46002	 32.50	
  8.491	168.704	157.35452	 29.74680	116.98331	 71.85256	 67.50928	  3.73717	162.90871	702.38000	 32.50	
  8.502	157.493	157.45737	 30.89972	115.63239	 79.58306	 60.32292	  3.74469	162.92836	702.46002	 32.50	
  8.494	146.194	157.68164	 33.72077	112.63455	 87.29396	 53.45688	  3.80806	162.97972	702.42999	 32.60	
  8.495	135.039	157.97182	 37.69228	108.25196	 94.48725	 47.48700	  3.74421	163.01633	702.42999	 32.70	
  8.487	123.723	158.21982	 42.88160	102.57298	100.56781	 42.43737	  3.69724	163.00600	702.41998	 32.70	
  8.492	112.575	158.48805	 48.90363	 96.05065	105.41817	 38.67522	  3.62217	162.98442	702.42999	 32.80	
  8.510	101.220	158.82893	 55.94375	 88.84093	109.18098	 35.82257	  3.60179	163.04903	702.37000	 32.80	
  8.500	 90.000	159.11047	 63.34307	 81.24635	111.08336	 34.50431	  3.56826	163.02034	702.34003	 32.80	
  8.510	 78.780	159.41095	 71.02415	 73.23978	111.49356	 34.44651	  3.61919	163.02072	702.35999	 32.80	
  8.492	 67.425	159.68405	 78.85636	 65.97672	110.22392	 35.68020	  3.75436	163.01743	702.41998	 32.90	
  8.487	 56.277	159.97885	 86.35171	 59.30910	107.35622	 38.16221	  3.82227	163.05142	702.39001	 32.90	
  8.495	 44.961	160.20523	 93.30189	 53.21172	103.16901	 42.01755	  3.88518	163.02846	702.41998	 33.00	
  8.494	 33.806	160.43459	 99.40698	 48.07016	 97.71447	 46.96201	  3.97773	163.02568	702.28998	 33.00	
  8.502	 22.507	160.66045	104.08991	 43.98100	 90.97166	 53.09108	  4.01779	163.07359	702.38000	 33.00	
  8.491	 11.296	160.72517	107.36716	 41.18307	 83.58796	 59.78488	  4.01615	163.03560	702.41998	 33.10	
  8.500	  0.000	160.79135	109.22195	 39.44537	 75.84369	 66.98666	  3.92160	163.07477	702.29999	 33.10	
  8.491	-11.296	160.77599	109.25326	 39.40429	 67.09768	 75.13824	  3.96389	163.05716	702.34998	 33.10	
  8.502	-22.507	160.72858	107.76334	 40.69991	 59.48357	 83.05449	  3.91519	163.10770	702.39001	 33.20	
  8.494	-33.806	160.61362	104.49741	 43.31856	 53.03104	 90.62032	  3.76911	163.13692	702.39001	 33.20	
  8.495	-44.961	160.45239	 99.87688	 47.21811	 46.81042	 97.39985	  3.62683	163.11783	702.50000	 33.20	
  8.487	-56.277	160.18121	 94.09079	 52.23972	 41.53602	103.41835	  3.64678	163.15018	702.45001	 33.20	
  8.492	-67.425	159.92575	 87.08056	 58.10508	 37.61825	108.04603	  3.63294	163.15855	702.33002	 33.30	
  8.510	-78.780	159.58252	 79.39453	 64.74641	 34.37802	111.32152	  3.58271	163.16051	702.45001	 33.40	
  8.500	-90.000	159.32146	 71.65466	 71.66891	 32.85539	112.81996	  3.53070	163.20911	702.33002	 33.40	
  8.510	-101.220	158.97786	 64.03069	 79.56039	 32.39917	112.90676	  3.55248	163.22025	702.47998	 33.40	
  8.492	-112.575	158.69502	 56.36463	 87.31136	 33.70446	111.26579	  3.60173	163.26320	702.34998	 33.50	
  8.487	-123.723	158.39177	 49.66975	 94.39844	 36.16283	108.12395	  3.61903	163.24818	702.44000	 33.50	
  8.495	-135.039	158.19618	 43.62992	101.20884	 39.87793	103.33662	  3.71805	163.28677	702.46997	 33.60	
  8.494	-146.194	157.91280	 38.34718	107.22820	 44.52949	 97.46496	  3.85914	163.24509	702.39001	 33.60	
  8.502	-157.493	157.81029	 33.97615	112.00394	 50.41067	 90.73603	  3.91462	163.28343	702.53003	 33.70	
  8.491	-168.704	157.72424	 31.09373	115.24923	 57.02950	 83.46111	  3.88305	163.28055	702.46997	 33.70	
  8.500	180.000	157.73160	 29.88937	117.06349	 64.40297	 75.41247	  3.81861	163.32297	702.41998	 33.80	
 10.200	180.000	155.04257	 21.28141	123.67803	 61.45940	 74.19506	  3.99996	163.33943	702.47998	 33.80	
 10.191	-170.497	155.11060	 22.28796	121.67607	 53.98337	 82.46072	  4.03745	163.36581	702.42999	 33.80	
 10.210	-161.034	155.10239	 24.32714	118.58635	 47.13301	 90.00804	  3.98114	163.32397	702.38000	 33.80	
 10.194	-151.526	155.26102	 28.74672	114.30305	 41.17675	 97.08488	  3.95327	163.33182	702.44000	 33.80	
 10.190	-142.105	155.47243	 33.20000	109.02509	 36.06781	103.67630	  3.81408	163.37270	702.44000	 33.90	
 10.215	-132.646	155.70306	 38.50090	102.65553	 31.65707	109.45303	  3.78152	163.38147	702.50000	 33.90	
 10.203	-123.092	156.01111	 44.81678	 95.52836	 28.07262	114.04829	  3.68481	163.40141	702.32001	 34.00	
 10.192	-113.678	156.33418	 51.62104	 88.21954	 25.59585	117.29851	  3.68112	163.40207	702.40997	 34.00	
 10.208	-104.249	156.70485	 59.16237	 80.54565	 24.38794	119.26608	  3.72358	163.41298	702.45001	 34.00	
 10.210	-94.801	157.04817	 66.75451	 72.74744	 24.62457	119.86920	  3.69019	163.37242	702.47998	 34.10	
 10.210	-85.199	157.42114	 74.68769	 65.54418	 25.42951	118.93227	  3.70710	163.37770	702.42999	 34.10	
 10.208	-75.751	157.71980	 82.66633	 58.43084	 27.22153	116.86845	  3.75863	163.38533	702.39001	 34.10	
 10.192	-66.322	158.10361	 90.07690	 52.06504	 30.55953	113.25691	  3.76664	163.38107	702.37000	 34.20	
 10.203	-56.908	158.39636	 97.31990	 46.18998	 34.56871	108.58945	  3.83384	163.40387	702.40997	 34.20	
 10.215	-47.354	158.70195	103.30411	 40.99079	 39.57546	102.74674	  3.81163	163.42735	702.38000	 34.20	
 10.190	-37.895	158.96317	108.36937	 37.07516	 45.53535	 95.71225	  3.89777	163.41032	702.53998	 34.20	
 10.194	-28.474	159.11099	112.36525	 33.89833	 52.06713	 88.52579	  3.99771	163.39885	702.42999	 34.20	
 10.210	-18.966	159.29922	115.07217	 31.94448	 59.11460	 80.82069	  4.10216	163.45763	702.51001	 34.20	
 10.191	 -9.503	159.36211	116.19102	 31.30922	 66.54991	 72.49171	  4.10985	163.41051	702.52002	 34.30	
 10.200	  0.000	159.39580	116.00414	 31.43905	 75.35500	 64.74641	  4.10957	163.44263	702.50000	 34.30	
 10.191	  9.503	159.30119	114.39212	 32.62786	 83.23156	 57.30782	  4.15751	163.44362	702.59003	 34.30	
 10.210	 18.966	159.22388	111.51167	 35.18628	 90.82594	 50.31816	  4.17066	163.51112	702.52002	 34.30	
 10.194	 28.474	159.09636	107.11359	 38.77069	 98.07298	 43.96415	  4.09814	163.51756	702.65002	 34.30	
 10.190	 37.895	158.92450	101.70428	 43.35796	104.24507	 38.55404	  4.00920	163.54874	702.63000	 34.40	
 10.215	 47.354	158.70923	 95.34556	 48.73190	109.56068	 33.98792	  3.93996	163.57022	702.58002	 34.40	
 10.203	 56.908	158.45023	 88.05547	 54.97262	113.88856	 30.34241	  3.84750	163.60510	702.52002	 34.40	
 10.192	 66.322	158.16827	 80.26857	 61.77743	116.78316	 28.02761	  3.69534	163.56403	702.65997	 34.50	
 10.208	 75.751	157.85767	 72.44099	 68.81428	118.54335	 26.65757	  3.60064	163.58893	702.58002	 34.50	
 10.210	 85.199	157.57730	 64.94789	 76.38120	118.66908	 26.05600	  3.52607	163.58574	702.53998	 34.50	
 10.210	 94.801	157.32442	 57.12201	 84.39046	117.43180	 26.72806	  3.53551	163.66164	702.62000	 34.60	
 10.208	104.249	156.96201	 49.82954	 91.92355	114.68514	 28.50037	  3.56119	163.60757	702.54999	 34.60	
 10.192	113.678	156.66940	 43.11137	 99.14770	110.73410	 31.51165	  3.60067	163.60132	702.60999	 34.60	
 10.203	123.092	156.36913	 37.22127	105.83802	105.72171	 35.27661	  3.63266	163.61513	702.57001	 34.70	
 10.215	132.646	156.07852	 31.88541	111.87257	 99.58093	 39.95023	  3.77560	163.61090	702.62000	 34.70	
 10.190	142.105	155.79214	 27.58353	116.67249	 92.52528	 45.62952	  3.86940	163.61322	702.64001	 34.70	
 10.194	151.526	155.61516	 24.28797	120.37920	 85.11978	 52.12698	  4.04482	163.63826	702.50000	 34.70	
 10.210	161.034	155.45186	 22.28940	123.10203	 77.20175	 59.30159	  3.93148	163.64278	702.65002	 34.80	
 10.191	170.497	155.41533	 21.56384	124.21723	 69.13470	 66.70768	  3.93145	163.63199	702.58002	 34.80	
 11.899	171.783	152.28307	 13.04227	130.00890	 65.70164	 65.23656	  4.23731	163.64307	702.54999	 34.80	
 11.890	163.610	152.47685	 13.70389	129.36655	 73.30043	 57.74357	  4.17398	163.72098	702.60999	 34.80	
 11.889	155.445	152.50523	 15.00104	127.38937	 81.80910	 50.31950	  4.32849	163.67026	702.60999	 34.80	
 11.909	147.299	152.66139	 17.52380	124.21634	 89.49769	 43.60262	  4.32515	163.68153	702.67999	 34.90	
 11.902	139.148	152.84213	 20.92859	119.81902	 97.00072	 37.49989	  4.03326	163.67224	702.60999	 35.00	
 11.894	130.867	153.22528	 25.82947	114.41560	104.08498	 32.13168	  3.90442	163.67326	702.66998	 35.10	
 11.897	122.732	153.48000	 30.90158	108.45305	110.18958	 27.63777	  3.75358	163.69101	702.64001	 35.20	
 11.903	114.597	153.76637	 36.70982	101.69291	115.31734	 23.59711	  3.79015	163.70589	702.53998	 35.20	
 11.893	106.346	154.09418	 43.37226	 94.33447	119.40810	 20.60777	  3.80476	163.66109	702.65997	 35.30	
 11.892	 98.155	154.41571	 50.63589	 86.62393	122.58852	 18.42859	  3.81031	163.65590	702.63000	 35.30	
 11.900	 90.000	154.77347	 58.21891	 78.90859	124.50315	 17.41003	  3.76349	163.69002	702.71002	 35.30	
 11.892	 81.845	155.07646	 65.90863	 71.16885	125.15417	 17.46819	  3.76836	163.70937	702.66998	 35.30	
 11.893	 73.654	155.42232	 73.50304	 63.92487	124.46609	 18.47256	  3.90495	163.69843	702.66998	 35.40	
 11.903	 65.403	155.66364	 81.40800	 56.76558	122.60667	 19.71696	  4.00000	163.68434	702.71997	 35.40	
 11.897	 57.268	155.95615	 89.16585	 50.03922	119.57023	 22.22099	  4.14156	163.68362	702.65002	 35.40	
 11.894	 49.133	156.22906	 96.63492	 43.89327	115.15843	 25.79284	  4.22602	163.62617	702.60999	 35.40	
 11.902	 40.852	156.49507	103.38442	 38.25796	109.93312	 30.17620	  4.31214	163.61862	702.65997	 35.40	
 11.909	 32.701	156.71257	109.25349	 33.46978	103.97450	 35.27147	  4.27513	163.61661	702.65002	 35.50	
 11.889	 24.555	156.93900	114.21158	 29.59051	 97.19473	 41.07229	  4.33303	163.64389	702.71002	 35.50	
 11.890	 16.390	157.06920	118.12806	 26.30450	 89.75974	 47.38303	  4.38230	163.63171	702.71002	 35.50	
 11.899	  8.217	157.14096	120.94192	 24.13887	 82.20918	 54.38344	  4.35173	163.62135	702.76001	 35.60	
 11.900	  0.000	157.26768	122.55873	 23.16252	 74.06219	 62.05936	  4.38768	163.62950	702.71002	 35.70	
 11.899	 -8.217	157.22142	122.99235	 22.88553	 65.66760	 69.73640	  4.37991	163.61818	702.69000	 35.70	
 11.890	-16.390	157.18433	121.94773	 23.27666	 58.40415	 77.86903	  4.27769	163.64481	702.67999	 35.70	
 11.889	-24.555	157.07155	119.83760	 24.69320	 50.98153	 85.85503	  4.27232	163.67406	702.70001	 35.70	
 11.909	-32.701	156.81926	116.38766	 27.12457	 43.92429	 93.41293	  4.24437	163.64784	702.62000	 35.70	
 11.902	-40.852	156.61855	112.00838	 30.63808	 37.67324	100.54378	  4.20172	163.65262	702.60999	 35.80	
 11.894	-49.133	156.41269	106.40706	 34.84159	 32.20048	107.40656	  4.15111	163.67627	702.65997	 35.80	
 11.897	-57.268	156.09511	100.21066	 39.83113	 27.36228	113.16978	  4.15965	163.66678	702.69000	 35.80	
 11.903	-65.403	155.75955	 92.85489	 45.37790	 22.98047	118.17937	  4.09522	163.71495	702.69000	 35.80	
 11.893	-73.654	155.33145	 85.34455	 51.71317	 19.60089	122.05155	  4.04658	163.63829	702.71002	 35.90	
 11.892	-81.845	154.92816	 77.18094	 58.72287	 17.42045	124.92731	  4.00762	163.60190	702.65997	 35.90	
 11.900	-90.000	154.61455	 69.31335	 66.15280	 16.19843	126.42010	  4.00265	163.64334	702.59003	 35.90	
 11.892	-98.155	154.29131	 61.78816	 73.32841	 15.66391	126.67117	  4.03999	163.67526	702.76001	 35.90	
 11.893	-106.346	153.91389	 54.05067	 81.13399	 15.73806	125.58335	  4.02388	163.66064	702.71002	 36.00	
 11.903	-114.597	153.60478	 46.52819	 88.99013	 17.08813	123.10338	  4.03398	163.67522	702.79999	 36.00	
 11.897	-122.732	153.29153	 39.73120	 96.37276	 19.62239	119.60680	  4.08010	163.68742	702.65002	 36.00	
 11.894	-130.867	153.05751	 33.49073	103.68701	 23.19076	115.11663	  4.10395	163.67746	702.73999	 36.00	
 11.902	-139.148	152.77406	 27.86334	110.43310	 27.31318	109.53449	  4.04077	163.70024	702.73999	 36.00	
 11.909	-147.299	152.55275	 23.04821	116.20928	 32.11587	103.25417	  4.12736	163.68742	702.64001	 36.10	
 11.889	-155.445	152.45647	 19.18186	121.11353	 37.81746	 96.09588	  4.21211	163.71918	702.70001	 36.10	
 11.890	-163.610	152.39635	 15.64327	125.21466	 44.13721	 88.76422	  4.29406	163.73070	702.65997	 36.10	
 11.899	-171.783	152.35544	 13.79385	128.17957	 50.95255	 81.01884	  4.24391	163.72551	702.71002	 36.10	
 11.900	180.000	152.25508	 12.78909	129.76489	 58.42310	 72.77678	  4.25086	163.72075	702.73999	 36.10	
 13.600	180.000	148.58041	  2.38581	135.07538	 54.58176	 70.79499	  4.50784	163.72084	702.67999	 36.10	
 13.608	-172.853	148.59210	  3.20045	133.53197	 47.38467	 78.71482	  4.48875	163.75105	702.73999	 36.10	
 13.611	-165.583	148.65982	  5.17741	131.04233	 40.20615	 87.00804	  4.50614	163.74568	702.64001	 36.10	
 13.601	-158.353	148.81857	  9.17276	127.37633	 33.87384	 94.56162	  4.30333	163.77480	702.69000	 36.10	
 13.609	-151.210	148.85405	 12.63964	122.57133	 28.03931	101.86308	  4.36233	163.74425	702.73999	 36.20	
 13.611	-143.999	149.05919	 17.08974	117.12903	 22.71738	108.67154	  4.38999	163.72115	702.84998	 36.20	
 13.601	-136.825	149.37828	 22.20018	111.01105	 18.29270	114.85970	  4.41087	163.80356	702.77002	 36.20	
 13.596	-129.640	149.57072	 27.89993	104.25979	 14.03852	120.16825	  4.39442	163.71910	702.72998	 36.20	
