FileType=PCF
NHL=14
Date=05/31/19	13:18:46
Facility=APL
Serial=16071-14
Customer=NASA
NP=6
Mach=0.380000
Calibration=1:1
CalPts=490
TstPts=95
PortNumbering=AP Standard
Units=Torr C m/s kg/m^3 deg mm 
Theta[deg]	Phi[deg]	P1[Torr]	P2[Torr]	P3[Torr]	P4[Torr]	P5[Torr]	P6[Torr]	Pt[Torr]	Ps[Abs,Torr]	Ts[C]	
  0.000	  0.000	 74.08809	 30.57844	 33.98171	 32.21693	 31.29100	  1.49790	 73.92528	701.32001	 40.40	
  1.691	128.401	 74.07017	 27.62037	 36.83353	 34.92681	 28.30379	  1.38943	 73.96725	701.34003	 40.50	
  1.692	 77.194	 74.15189	 30.84838	 33.50175	 36.20675	 27.19518	  1.46959	 74.00227	701.40002	 40.50	
  1.699	 26.182	 74.13646	 34.00632	 30.29785	 34.43167	 28.92849	  1.51965	 73.97279	701.39001	 40.60	
  1.699	-26.182	 74.14933	 34.46664	 29.91653	 30.87640	 32.72384	  1.52626	 73.99154	701.28003	 40.60	
  1.692	-77.194	 74.15723	 31.85526	 32.53885	 28.31641	 35.30881	  1.45861	 73.98540	701.35999	 40.70	
  1.691	-128.401	 74.17116	 28.40065	 36.12186	 28.55645	 34.94672	  1.41560	 74.03127	701.34998	 40.70	
  1.700	180.000	 74.07150	 26.50661	 38.01263	 31.53290	 31.67847	  1.36181	 73.97441	701.34003	 40.70	
  3.400	180.000	 73.82034	 22.39887	 41.68156	 30.63819	 31.81070	  1.13541	 74.02119	701.42999	 40.80	
  3.388	-152.325	 73.83675	 23.68360	 40.35164	 27.02993	 35.66983	  1.18039	 73.96776	701.35999	 40.80	
  3.397	-124.529	 73.98369	 26.50409	 37.50367	 24.70862	 38.43403	  1.24533	 74.03127	701.35999	 40.90	
  3.399	-96.763	 74.08267	 30.20102	 33.65704	 23.92827	 39.44108	  1.28520	 74.03784	701.31000	 40.90	
  3.394	-69.283	 74.13661	 34.10476	 29.75185	 24.86935	 38.54512	  1.33873	 74.03041	701.23999	 41.00	
  3.400	-41.398	 74.16747	 37.21780	 26.90227	 27.31642	 35.93228	  1.38370	 74.03813	701.28998	 41.00	
  3.401	-14.021	 74.18253	 38.68531	 25.59270	 31.00423	 32.13420	  1.43797	 74.03606	701.31000	 41.00	
  3.401	 14.021	 74.16051	 38.14962	 26.03326	 34.94102	 28.04827	  1.43855	 74.03384	701.16998	 41.10	
  3.400	 41.398	 74.14427	 35.86547	 28.07890	 38.09702	 24.96116	  1.38742	 74.07001	701.31000	 41.10	
  3.394	 69.283	 74.05924	 32.21408	 31.39367	 39.83700	 23.25025	  1.30609	 74.07977	701.28003	 41.20	
  3.399	 96.763	 74.00355	 28.32164	 35.50638	 39.78537	 23.23986	  1.19744	 74.09122	701.22998	 41.20	
  3.397	124.529	 73.99561	 24.98262	 39.08193	 37.91528	 24.94156	  1.11768	 74.14891	701.26001	 41.30	
  3.388	152.325	 73.93026	 22.90900	 41.20877	 34.63032	 28.02364	  1.11109	 74.12154	701.21997	 41.30	
  5.099	161.165	 73.34230	 18.34001	 45.12896	 33.71065	 27.88369	  0.73737	 74.12514	701.20001	 41.30	
  5.109	142.013	 73.35826	 19.71925	 43.44529	 37.57224	 24.24347	  0.70995	 74.10947	701.17999	 41.40	
  5.095	123.033	 73.44457	 22.21657	 40.80827	 40.65845	 21.43887	  0.74974	 74.10433	701.26001	 41.40	
  5.105	104.191	 73.53350	 25.46106	 37.48970	 42.86962	 19.58794	  0.79689	 74.12022	701.22998	 41.50	
  5.093	 85.207	 73.61904	 29.25788	 33.41607	 43.80023	 18.86225	  0.89121	 74.09349	701.26001	 41.50	
  5.104	 66.290	 73.76265	 33.38802	 29.39234	 43.40676	 19.26053	  0.99595	 74.13651	701.37000	 41.50	
  5.094	 47.331	 73.86945	 37.16706	 25.98533	 41.58431	 20.92262	  1.08978	 74.12340	701.28003	 41.60	
  5.089	 28.397	 73.96964	 40.13659	 23.36997	 38.75877	 23.57978	  1.16319	 74.13629	701.27002	 41.60	
  5.096	  9.576	 74.07773	 42.01661	 21.81345	 35.20998	 27.11786	  1.21054	 74.17424	701.25000	 41.60	
  5.096	 -9.576	 74.08908	 42.54017	 21.39481	 31.08801	 31.15724	  1.19347	 74.13185	701.29999	 41.70	
  5.089	-28.397	 74.10237	 41.66401	 22.15594	 27.14058	 35.31124	  1.16019	 74.16810	701.15002	 41.70	
  5.094	-47.331	 74.01588	 39.45761	 24.04342	 23.80990	 38.85513	  1.07562	 74.12941	701.21002	 41.70	
  5.104	-66.290	 73.97608	 36.21498	 26.96736	 21.33080	 41.49973	  1.02567	 74.14272	701.13000	 41.80	
  5.093	-85.207	 73.86811	 32.24339	 30.56256	 19.99678	 42.90388	  0.97283	 74.09834	701.17999	 41.80	
  5.105	-104.191	 73.79875	 28.23462	 34.76417	 19.81568	 43.04388	  0.96195	 74.15443	701.17999	 41.80	
  5.095	-123.033	 73.68022	 24.55466	 38.63813	 20.86484	 41.68134	  0.94670	 74.13815	701.10999	 41.80	
  5.109	-142.013	 73.58511	 21.36761	 41.95127	 22.86017	 39.31526	  0.88742	 74.18031	701.09998	 41.90	
  5.099	-161.165	 73.50109	 19.22168	 44.29509	 25.90651	 35.87694	  0.83097	 74.18797	701.15002	 41.90	
  5.100	180.000	 73.42365	 18.22847	 45.40044	 29.53585	 31.80568	  0.75224	 74.20734	701.27002	 41.90	
  6.800	180.000	 72.58651	 13.98025	 48.62810	 28.32022	 31.56791	  0.30511	 74.17043	701.17999	 42.00	
  6.796	-166.229	 72.64036	 14.75326	 47.81366	 24.74501	 35.59073	  0.37700	 74.17362	701.19000	 42.00	
  6.808	-152.311	 72.75294	 16.43963	 46.04990	 21.57638	 39.26272	  0.46949	 74.16592	701.13000	 42.10	
  6.795	-138.383	 72.89549	 18.86932	 43.32585	 18.99139	 42.25350	  0.48436	 74.21651	701.16998	 42.10	
  6.792	-124.591	 73.00497	 21.88885	 40.12856	 17.08022	 44.66486	  0.48045	 74.20146	701.19000	 42.10	
  6.787	-110.754	 73.11703	 25.40950	 36.40166	 15.92852	 46.22306	  0.52473	 74.17068	701.22998	 42.20	
  6.800	-96.985	 73.24270	 29.05982	 32.26922	 15.45913	 46.80247	  0.48051	 74.18034	701.19000	 42.20	
  6.800	-83.015	 73.37228	 32.98858	 28.53129	 15.88284	 46.40029	  0.49402	 74.19998	701.22998	 42.20	
  6.787	-69.246	 73.46093	 36.85561	 25.08389	 17.15706	 44.94599	  0.53636	 74.17551	701.19000	 42.20	
  6.792	-55.409	 73.58659	 40.26286	 22.09870	 19.18596	 42.67196	  0.56627	 74.22478	701.17999	 42.20	
  6.795	-41.617	 73.60957	 43.01271	 19.74833	 21.87375	 39.73035	  0.62297	 74.18588	701.14001	 42.30	
  6.808	-27.689	 73.65196	 45.04535	 18.04268	 25.19771	 36.09211	  0.73055	 74.17926	701.26001	 42.30	
  6.796	-13.771	 73.66463	 46.08043	 17.14740	 28.96519	 31.85819	  0.76950	 74.20268	701.21002	 42.30	
  6.800	  0.000	 73.64075	 46.13416	 17.10726	 33.07833	 27.98108	  0.78114	 74.21804	701.17999	 42.40	
  6.796	 13.771	 73.62561	 45.14309	 17.92922	 36.93945	 24.26575	  0.84063	 74.24129	701.21002	 42.40	
  6.808	 27.689	 73.49464	 43.14651	 19.53738	 40.38987	 20.92018	  0.79111	 74.20419	701.19000	 42.40	
  6.795	 41.617	 73.39952	 40.30575	 21.92570	 43.41044	 18.21669	  0.57244	 74.20821	701.26001	 42.50	
  6.792	 55.409	 73.33372	 36.97860	 24.92842	 45.85073	 16.21104	  0.60355	 74.24601	701.16998	 42.50	
  6.787	 69.246	 73.21502	 33.08481	 28.35596	 47.12792	 15.02147	  0.52469	 74.25867	701.15002	 42.50	
  6.800	 83.015	 73.08061	 29.13528	 32.08267	 47.50560	 14.58172	  0.42603	 74.22941	701.20001	 42.50	
  6.800	 96.985	 73.00803	 25.36692	 36.25035	 47.02461	 15.02632	  0.33980	 74.26957	701.28998	 42.60	
  6.787	110.754	 72.95101	 21.97896	 39.97818	 45.52319	 16.29068	  0.28173	 74.30701	701.32001	 42.60	
  6.792	124.591	 72.82302	 18.95465	 43.05208	 43.01627	 18.20657	  0.25307	 74.26656	701.26001	 42.60	
  6.795	138.383	 72.72775	 16.51742	 45.78360	 39.94695	 20.85465	  0.17572	 74.24994	701.27002	 42.60	
  6.808	152.311	 72.69249	 14.89076	 47.84427	 36.46900	 24.11403	  0.23300	 74.27840	701.21002	 42.70	
  6.796	166.229	 72.65544	 14.00334	 48.65844	 32.41129	 27.77728	  0.23332	 74.26075	701.17999	 42.70	
  8.491	168.704	 71.55499	  9.68575	 52.14639	 30.90980	 27.30518	 -0.30717	 74.27100	701.12000	 42.70	
  8.502	157.493	 71.52074	 10.23149	 51.35403	 35.08641	 23.50426	 -0.64833	 74.22144	701.28003	 42.70	
  8.494	146.194	 71.62553	 11.57566	 49.71803	 38.96501	 20.05182	 -0.36737	 74.25636	701.20001	 42.80	
  8.495	135.039	 71.71499	 13.42947	 47.67064	 42.33606	 17.02158	 -0.72337	 74.27736	701.14001	 42.80	
  8.487	123.723	 71.78992	 15.86008	 44.79930	 45.56043	 14.49234	 -0.63308	 74.26254	701.21997	 42.80	
  8.492	112.575	 71.89849	 18.83997	 41.51009	 47.95492	 12.58255	 -0.65492	 74.27843	701.23999	 42.80	
  8.510	101.220	 71.98868	 22.22561	 37.76725	 49.75629	 11.12809	 -0.41565	 74.27344	701.23999	 42.80	
  8.500	 90.000	 72.13091	 25.92466	 33.61858	 50.74767	 10.42638	 -0.22328	 74.30119	701.28998	 42.90	
  8.510	 78.780	 72.24007	 29.82310	 29.65612	 51.05036	 10.27239	 -0.11379	 74.31033	701.27002	 42.90	
  8.492	 67.425	 72.33415	 33.85796	 25.86769	 50.32028	 10.86232	 -0.01758	 74.27766	701.21002	 42.90	
  8.487	 56.277	 72.47275	 37.77870	 22.53546	 48.84180	 12.10073	  0.05128	 74.27316	701.21997	 42.90	
  8.495	 44.961	 72.57237	 41.29264	 19.47941	 46.70964	 13.97349	 -0.11348	 74.23349	701.21002	 42.90	
  8.494	 33.806	 72.71384	 44.48256	 16.92886	 43.78260	 16.45394	  0.04791	 74.27212	701.26001	 43.00	
  8.502	 22.507	 72.82417	 46.97210	 14.82058	 40.46053	 19.46008	  0.34255	 74.30319	701.27002	 43.00	
  8.491	 11.296	 72.91107	 48.55953	 13.54470	 36.80048	 22.92848	  0.38221	 74.28215	701.27002	 43.00	
  8.500	  0.000	 72.93666	 49.46492	 12.78447	 32.70160	 26.73196	  0.32150	 74.24046	701.22998	 43.00	
  8.491	-11.296	 72.97534	 49.54133	 12.67825	 28.55183	 30.68400	  0.26323	 74.27080	701.19000	 43.00	
  8.502	-22.507	 73.01867	 48.84135	 13.33501	 24.77166	 34.90346	  0.24721	 74.28141	701.21002	 43.10	
  8.494	-33.806	 73.02855	 47.32197	 14.67587	 21.23078	 38.93272	  0.10171	 74.34419	701.26001	 43.10	
  8.495	-44.961	 72.92483	 45.00449	 16.63836	 18.09069	 42.33975	 -0.21634	 74.26620	701.27002	 43.10	
  8.487	-56.277	 72.84744	 42.02850	 19.13096	 15.53280	 45.25515	 -0.03565	 74.26308	701.21997	 43.10	
  8.492	-67.425	 72.73444	 38.59443	 22.00270	 13.49374	 47.62528	 -0.06082	 74.25264	701.26001	 43.10	
  8.510	-78.780	 72.61206	 34.68347	 25.36332	 12.07946	 49.21335	 -0.08129	 74.26215	701.21002	 43.20	
  8.500	-90.000	 72.55853	 30.68313	 29.08965	 11.49765	 50.06722	 -0.11452	 74.31040	701.34998	 43.20	
  8.510	-101.220	 72.40533	 26.84348	 32.87443	 11.30086	 50.07653	 -0.08981	 74.27068	701.22998	 43.20	
  8.492	-112.575	 72.24046	 23.04597	 37.09573	 11.85764	 49.17099	 -0.02504	 74.25191	701.23999	 43.20	
  8.487	-123.723	 72.10514	 19.57659	 40.91519	 13.05581	 47.70122	 -0.10097	 74.24000	701.21997	 43.20	
  8.495	-135.039	 71.96600	 16.52723	 44.21331	 14.76151	 45.51815	 -0.03889	 74.24187	701.26001	 43.20	
  8.494	-146.194	 71.87813	 13.95752	 47.22388	 17.09933	 42.61517	 -0.02494	 74.27216	701.21997	 43.20	
  8.502	-157.493	 71.75378	 11.89570	 49.39656	 20.02460	 39.20953	 -0.03607	 74.24841	701.32001	 43.20	
  8.491	-168.704	 71.69415	 10.57614	 51.15402	 23.39826	 35.33386	 -0.09257	 74.28507	701.34003	 43.20	
  8.500	180.000	 71.57024	  9.80349	 52.03669	 27.05054	 31.16933	 -0.20491	 74.23394	701.21002	 43.30	
 10.200	180.000	 70.20001	  5.52491	 55.18684	 25.50040	 30.53202	 -0.86732	 74.24456	701.23999	 43.30	
 10.191	-170.497	 70.27294	  6.21903	 54.31755	 21.77254	 34.60304	 -0.67096	 74.22738	701.16998	 43.30	
 10.210	-161.034	 70.38790	  7.29241	 52.83635	 18.31118	 38.73138	 -0.60820	 74.26376	701.19000	 43.30	
 10.194	-151.526	 70.52101	  9.06336	 50.58786	 15.26462	 42.39582	 -0.96130	 74.27881	701.32001	 43.30	
 10.190	-142.105	 70.62280	 11.30595	 48.02928	 12.64372	 45.64031	 -1.02583	 74.25562	701.09998	 43.30	
 10.215	-132.646	 70.77007	 13.97343	 44.94556	 10.54818	 48.33371	 -1.04883	 74.27576	701.14001	 43.40	
 10.203	-123.092	 70.88937	 17.06016	 41.42315	  8.95324	 50.52146	 -1.04998	 74.25695	701.17999	 43.40	
 10.192	-113.678	 70.98856	 20.49429	 37.56021	  7.74160	 52.22458	 -1.02329	 74.24186	701.14001	 43.40	
 10.208	-104.249	 71.15931	 24.27110	 33.41486	  7.07407	 53.24112	 -1.03243	 74.26656	701.14001	 43.40	
 10.210	-94.801	 71.32753	 28.18240	 29.51707	  6.98615	 53.55552	 -0.78830	 74.32254	701.13000	 43.40	
 10.210	-85.199	 71.48267	 32.16513	 25.64996	  7.51666	 53.10266	 -1.11287	 74.32349	701.21002	 43.50	
 10.208	-75.751	 71.58737	 36.19257	 22.05110	  8.36661	 51.92184	 -0.80148	 74.29552	701.13000	 43.50	
 10.192	-66.322	 71.73165	 40.02355	 18.88991	  9.77358	 49.99057	 -0.95233	 74.30441	701.17999	 43.50	
 10.203	-56.908	 71.82299	 43.52619	 15.98059	 11.65059	 47.75875	 -0.91789	 74.31370	701.14001	 43.50	
 10.215	-47.354	 71.88210	 46.65059	 13.39725	 14.16061	 44.72754	 -1.12882	 74.30202	701.15997	 43.50	
 10.190	-37.895	 71.96321	 49.03240	 11.41748	 17.16831	 41.37786	 -0.68292	 74.30494	701.23999	 43.50	
 10.194	-28.474	 72.02466	 50.97157	 10.11102	 20.54743	 37.59207	 -0.78112	 74.29464	701.13000	 43.50	
 10.210	-18.966	 72.00127	 52.35246	  8.65825	 24.20236	 33.32563	 -0.42165	 74.29551	701.20001	 43.50	
 10.191	 -9.503	 72.05085	 52.94253	  8.23866	 28.10756	 29.29861	 -0.33750	 74.34372	701.15997	 43.50	
 10.200	  0.000	 72.00936	 52.81124	  8.34938	 32.12985	 25.36880	 -0.38838	 74.34401	700.98999	 43.50	
 10.191	  9.503	 71.93186	 51.86595	  9.02151	 36.33216	 21.51418	 -0.29452	 74.33266	700.96002	 43.50	
 10.210	 18.966	 71.84829	 50.28443	 10.25217	 40.15694	 17.96931	 -0.55148	 74.36604	701.06000	 43.50	
 10.194	 28.474	 71.73215	 48.10439	 12.05551	 43.69353	 14.77549	 -0.58552	 74.33560	701.04999	 43.50	
 10.190	 37.895	 71.62499	 45.36853	 14.23146	 47.00111	 12.00849	 -0.75366	 74.34269	701.15997	 43.50	
 10.215	 47.354	 71.45631	 42.09251	 16.83320	 49.56740	  9.64215	 -0.92402	 74.32778	701.14001	 43.50	
 10.203	 56.908	 71.37113	 38.39684	 20.02081	 51.76960	  8.00409	 -1.00654	 74.33356	701.03003	 43.50	
 10.192	 66.322	 71.27231	 34.43761	 23.39217	 53.26707	  6.84284	 -1.10499	 74.34325	701.03998	 43.60	
 10.208	 75.751	 71.11710	 30.42524	 27.01898	 54.14498	  6.04952	 -0.88618	 74.33672	701.13000	 43.60	
 10.210	 85.199	 70.99377	 26.42340	 30.95624	 54.22322	  5.93878	 -0.85081	 74.31968	701.10999	 43.60	
 10.210	 94.801	 70.90875	 22.57039	 35.04317	 53.68724	  6.33995	 -1.43980	 74.35521	701.17999	 43.60	
 10.208	104.249	 70.77086	 18.92456	 39.16955	 52.36901	  7.28160	 -1.44227	 74.33071	701.03003	 43.60	
 10.192	113.678	 70.70097	 15.63720	 42.89968	 50.30166	  8.83532	 -1.48026	 74.38070	701.06000	 43.60	
 10.203	123.092	 70.53184	 12.72221	 46.18835	 47.86729	 10.68989	 -1.50233	 74.31284	700.90997	 43.60	
 10.215	132.646	 70.46772	 10.19539	 49.12502	 44.79855	 12.97480	 -1.51012	 74.31667	700.96997	 43.70	
 10.190	142.105	 70.43822	  8.30816	 51.58670	 41.33795	 15.93206	 -1.43396	 74.38930	701.12000	 43.70	
 10.194	151.526	 70.33136	  6.76953	 53.53744	 37.61324	 19.20852	 -1.43293	 74.36243	701.09998	 43.70	
 10.210	161.034	 70.30461	  5.80290	 54.83988	 33.55775	 22.83738	 -1.44128	 74.37189	700.95001	 43.70	
 10.191	170.497	 70.28056	  5.38723	 55.38174	 29.49084	 26.65470	 -0.93644	 74.34763	700.89001	 43.70	
 11.899	171.783	 68.68067	  0.87283	 58.35629	 27.80349	 25.81182	 -1.91154	 74.38525	701.00000	 43.70	
 11.890	163.610	 68.68371	  1.32327	 57.85917	 31.73539	 21.95172	 -2.13873	 74.35009	701.03003	 43.70	
 11.889	155.445	 68.72319	  2.09644	 56.85791	 35.87675	 18.31795	 -2.08965	 74.36707	701.00000	 43.70	
 11.909	147.299	 68.78578	  3.18499	 55.34848	 39.80622	 14.85956	 -2.08224	 74.38916	701.07001	 43.70	
 11.902	139.148	 68.87868	  4.83107	 53.12720	 43.42941	 11.89340	 -2.15795	 74.38186	701.06000	 43.70	
 11.894	130.867	 69.04434	  7.04330	 50.26833	 46.97122	  8.99570	 -2.16280	 74.39453	701.03998	 43.80	
 11.897	122.732	 69.04191	  9.55217	 47.41467	 49.80527	  6.73330	 -2.16508	 74.34885	700.98999	 43.80	
 11.903	114.597	 69.13802	 12.30155	 44.01334	 52.50394	  4.84996	 -2.17367	 74.36203	701.09998	 43.80	
 11.893	106.346	 69.28419	 15.54958	 40.30414	 54.63275	  3.46142	 -2.14325	 74.38664	701.01001	 43.80	
 11.892	 98.155	 69.36959	 19.09112	 36.17330	 56.12140	  2.39911	 -2.12252	 74.34682	701.04999	 43.80	
 11.900	 90.000	 69.49640	 22.85179	 32.17111	 57.04934	  1.74121	 -2.11615	 74.39609	700.89001	 43.80	
 11.892	 81.845	 69.58157	 26.77367	 28.21227	 57.33090	  1.58641	 -1.95737	 74.35956	701.01001	 43.80	
 11.893	 73.654	 69.74948	 30.78555	 24.38575	 56.97087	  1.96148	 -1.89066	 74.39900	700.94000	 43.90	
 11.903	 65.403	 69.84852	 34.78284	 20.74319	 56.01606	  2.75773	 -1.81446	 74.36018	701.03998	 43.90	
 11.897	 57.268	 69.99656	 38.78437	 17.37332	 54.49473	  3.95867	 -1.63752	 74.36539	701.03003	 43.90	
 11.894	 49.133	 70.10831	 42.52205	 14.24877	 52.37572	  5.57411	 -1.57600	 74.35260	700.98999	 43.90	
 11.902	 40.852	 70.22483	 45.96100	 11.65055	 49.66083	  7.57390	 -1.45076	 74.33920	700.98999	 43.90	
 11.909	 32.701	 70.35217	 48.93187	  9.19046	 46.79139	 10.10638	 -1.32804	 74.36479	700.96002	 44.00	
 11.889	 24.555	 70.46569	 51.33439	  7.34995	 43.28002	 13.05509	 -1.30731	 74.32351	700.97998	 44.00	
 11.890	 16.390	 70.58943	 53.53188	  5.82033	 39.65327	 16.33731	 -1.33757	 74.36743	700.96997	 44.00	
 11.899	  8.217	 70.65648	 55.06086	  4.68340	 35.72135	 19.85018	 -1.43398	 74.34866	700.91998	 44.00	
 11.900	  0.000	 70.72968	 55.89436	  4.14289	 31.43469	 23.74192	 -1.47438	 74.33916	700.91998	 44.00	
 11.899	 -8.217	 70.75562	 56.08291	  3.94513	 27.36316	 27.73688	 -1.40673	 74.30923	700.98999	 44.00	
 11.890	-16.390	 70.86012	 55.63727	  4.35290	 23.55158	 31.75933	 -1.41931	 74.39153	701.01001	 44.00	
 11.889	-24.555	 70.79470	 54.52605	  5.15540	 19.77163	 35.92557	 -1.62344	 74.34777	700.96002	 44.00	
 11.909	-32.701	 70.72572	 52.87271	  6.40387	 16.26225	 39.99059	 -1.75563	 74.34035	700.90997	 44.00	
 11.902	-40.852	 70.75657	 50.70396	  8.08156	 13.16502	 43.61531	 -1.91856	 74.38706	700.94000	 44.10	
 11.894	-49.133	 70.65616	 48.00870	 10.18350	 10.30978	 46.99054	 -1.97873	 74.36414	700.94000	 44.10	
 11.897	-57.268	 70.56483	 44.90987	 12.91303	  7.90099	 49.72377	 -1.94388	 74.36919	700.92999	 44.10	
 11.903	-65.403	 70.41988	 41.36982	 15.49832	  5.94366	 52.32381	 -1.87805	 74.36019	700.78003	 44.10	
 11.893	-73.654	 70.34252	 37.48443	 18.77356	  4.52248	 54.35799	 -1.85085	 74.36800	700.90997	 44.10	
 11.892	-81.845	 70.19605	 33.42811	 22.27052	  3.42839	 55.73295	 -2.01926	 74.37399	700.78998	 44.10	
 11.900	-90.000	 70.05822	 29.49578	 25.90195	  2.71300	 56.54503	 -2.06618	 74.37999	700.89001	 44.10	
 11.892	-98.155	 69.89160	 25.47322	 29.79429	  2.51006	 56.69624	 -1.70640	 74.37269	700.89001	 44.10	
 11.893	-106.346	 69.77316	 21.58427	 33.72186	  2.65023	 56.17817	 -1.86931	 74.36415	700.95001	 44.10	
 11.903	-114.597	 69.61972	 17.85627	 37.89854	  3.47350	 55.13561	 -1.80634	 74.40294	700.90997	 44.10	
 11.897	-122.732	 69.44066	 14.47418	 41.76157	  4.60550	 53.37925	 -1.81731	 74.31820	700.84998	 44.10	
 11.894	-130.867	 69.35031	 11.33869	 45.37075	  6.24288	 51.06928	 -1.80614	 74.38647	700.88000	 44.10	
 11.902	-139.148	 69.16326	  8.44617	 48.67038	  8.17186	 48.42064	 -1.75562	 74.33503	700.84998	 44.20	
 11.909	-147.299	 69.05556	  6.18225	 51.43515	 10.57434	 45.33334	 -1.63229	 74.35298	700.84998	 44.10	
 11.889	-155.445	 68.97600	  4.33419	 53.95324	 13.40207	 41.86298	 -1.57322	 74.34036	700.83002	 44.20	
 11.890	-163.610	 68.91502	  2.78446	 55.90783	 16.63530	 38.01374	 -1.58654	 74.37927	700.90002	 44.20	
 11.899	-171.783	 68.80536	  1.74518	 57.33968	 20.09287	 33.76708	 -1.73464	 74.37423	700.91998	 44.20	
 11.900	180.000	 68.69672	  1.06472	 58.15981	 23.81910	 29.84111	 -1.99837	 74.34273	701.08002	 44.20	
 13.600	180.000	 66.80228	 -3.31174	 60.76046	 21.97368	 28.79479	 -2.55727	 74.35665	700.98999	 44.20	
 13.608	-172.853	 66.90065	 -2.69386	 60.08957	 18.23038	 32.80682	 -2.38554	 74.41232	700.91998	 44.20	
 13.611	-165.583	 66.95631	 -1.80143	 58.79382	 14.67369	 36.88772	 -2.23290	 74.36243	700.97998	 44.20	
 13.601	-158.353	 67.04784	 -0.56449	 57.02431	 11.39516	 40.98509	 -2.16026	 74.36149	700.95001	 44.20	
 13.609	-151.210	 67.18793	  1.13846	 54.73668	  8.72509	 44.58760	 -2.13898	 74.40063	700.98999	 44.20	
 13.611	-143.999	 67.29706	  3.21992	 51.84398	  5.86458	 48.02834	 -2.27041	 74.38078	700.95001	 44.20	
 13.601	-136.825	 67.42722	  5.80906	 48.96391	  3.60643	 50.80739	 -2.43267	 74.35966	700.91998	 44.20	
 13.596	-129.640	 67.56615	  8.69587	 45.59774	  1.78319	 53.65535	 -2.49637	 74.37685	701.02002	 44.20	
