FileType=PCF
NHL=14
Date=05/31/19	10:59:06
Facility=APL
Serial=16071-14
Customer=NASA
NP=6
Mach=0.036000
Calibration=1:1
CalPts=490
TstPts=95
PortNumbering=AP Standard
Units=Torr C m/s kg/m^3 deg mm 
Theta[deg]	Phi[deg]	P1[Torr]	P2[Torr]	P3[Torr]	P4[Torr]	P5[Torr]	P6[Torr]	Pt[Torr]	Ps[Abs,Torr]	Ts[C]	
  0.000	  0.000	  0.63595	  0.28639	  0.28677	  0.28769	  0.27908	  0.04597	  0.63777	702.10999	 33.00	
  1.691	128.401	  0.63140	  0.26207	  0.30471	  0.30942	  0.25304	  0.04370	  0.63397	702.09003	 33.00	
  1.692	 77.194	  0.63018	  0.28134	  0.28319	  0.32068	  0.23881	  0.04393	  0.63421	702.09998	 33.00	
  1.699	 26.182	  0.63510	  0.31064	  0.26187	  0.30406	  0.25711	  0.04588	  0.63746	702.16998	 33.00	
  1.699	-26.182	  0.63563	  0.31426	  0.25788	  0.27410	  0.28758	  0.04496	  0.63885	702.15002	 33.00	
  1.692	-77.194	  0.63894	  0.29269	  0.27895	  0.26366	  0.30645	  0.04645	  0.64117	702.06000	 33.00	
  1.691	-128.401	  0.63755	  0.26788	  0.30487	  0.26192	  0.30581	  0.04473	  0.63996	702.03998	 33.00	
  1.700	180.000	  0.63726	  0.25648	  0.31873	  0.28493	  0.28246	  0.04444	  0.63847	702.08002	 33.00	
  3.400	180.000	  0.63723	  0.22274	  0.35323	  0.27853	  0.28311	  0.04115	  0.64275	702.09998	 33.00	
  3.388	-152.325	  0.63647	  0.23340	  0.33762	  0.25165	  0.31190	  0.04022	  0.64108	702.01001	 33.00	
  3.397	-124.529	  0.63419	  0.25153	  0.31428	  0.23600	  0.32941	  0.04072	  0.63891	702.07001	 33.00	
  3.399	-96.763	  0.63689	  0.27906	  0.28493	  0.22551	  0.34436	  0.04221	  0.63989	702.08002	 33.00	
  3.394	-69.283	  0.63267	  0.31037	  0.25459	  0.22905	  0.33068	  0.04228	  0.63631	702.03003	 33.00	
  3.400	-41.398	  0.63959	  0.33964	  0.23256	  0.24799	  0.31206	  0.04133	  0.64410	702.12000	 33.00	
  3.401	-14.021	  0.63683	  0.34629	  0.22696	  0.27138	  0.28856	  0.04426	  0.64079	702.02002	 32.90	
  3.401	 14.021	  0.63315	  0.34148	  0.22543	  0.30708	  0.24979	  0.04342	  0.63555	702.04999	 32.90	
  3.400	 41.398	  0.63809	  0.32672	  0.24358	  0.33391	  0.23064	  0.04418	  0.64229	702.07001	 32.90	
  3.394	 69.283	  0.63284	  0.29249	  0.26967	  0.35064	  0.21388	  0.04181	  0.63855	702.07001	 32.90	
  3.399	 96.763	  0.63226	  0.26347	  0.29961	  0.35116	  0.21238	  0.04211	  0.63663	702.09998	 32.90	
  3.397	124.529	  0.63146	  0.24051	  0.32314	  0.33360	  0.22877	  0.04115	  0.63503	701.98999	 32.90	
  3.388	152.325	  0.63043	  0.22569	  0.34165	  0.30706	  0.25088	  0.04023	  0.63541	702.12000	 32.90	
  5.099	161.165	  0.62968	  0.18624	  0.37990	  0.29680	  0.25506	  0.03608	  0.63940	702.17999	 32.90	
  5.109	142.013	  0.62456	  0.19608	  0.36164	  0.32883	  0.22175	  0.03593	  0.63322	702.10999	 32.90	
  5.095	123.033	  0.62415	  0.21414	  0.33900	  0.35544	  0.19908	  0.03621	  0.63195	702.09998	 32.90	
  5.105	104.191	  0.62871	  0.24052	  0.31298	  0.37584	  0.18280	  0.03480	  0.63674	701.95001	 32.90	
  5.093	 85.207	  0.63255	  0.27226	  0.28394	  0.38534	  0.17781	  0.03827	  0.64173	701.92999	 32.90	
  5.104	 66.290	  0.62869	  0.29973	  0.25127	  0.38110	  0.17741	  0.03644	  0.63762	702.00000	 32.90	
  5.094	 47.331	  0.63372	  0.33315	  0.22555	  0.36680	  0.19240	  0.03627	  0.64122	702.03998	 32.90	
  5.089	 28.397	  0.62970	  0.36281	  0.19842	  0.33705	  0.21353	  0.03977	  0.63816	701.92999	 32.90	
  5.096	  9.576	  0.63163	  0.37460	  0.19165	  0.30530	  0.24265	  0.04038	  0.64028	702.03998	 32.90	
  5.096	 -9.576	  0.63073	  0.37848	  0.18676	  0.27300	  0.27726	  0.04126	  0.63696	702.04999	 32.90	
  5.089	-28.397	  0.63365	  0.37497	  0.19395	  0.24171	  0.31030	  0.04174	  0.64114	702.71997	 32.90	
  5.094	-47.331	  0.63938	  0.35882	  0.21176	  0.22210	  0.33790	  0.04002	  0.64463	702.02002	 32.90	
  5.104	-66.290	  0.63226	  0.32651	  0.23453	  0.20131	  0.35854	  0.03784	  0.63823	702.00000	 32.90	
  5.093	-85.207	  0.63069	  0.29498	  0.26132	  0.19111	  0.37283	  0.03870	  0.63592	701.94000	 32.90	
  5.105	-104.191	  0.63169	  0.26586	  0.29132	  0.18939	  0.37556	  0.03716	  0.63807	701.98999	 32.90	
  5.095	-123.033	  0.63221	  0.23150	  0.32880	  0.19984	  0.36594	  0.03676	  0.63875	701.92999	 32.90	
  5.109	-142.013	  0.63487	  0.21296	  0.35233	  0.21586	  0.34786	  0.03539	  0.64421	701.94000	 32.90	
  5.099	-161.165	  0.63311	  0.20111	  0.36818	  0.23815	  0.31636	  0.03578	  0.64222	701.97998	 32.90	
  5.100	180.000	  0.62738	  0.18613	  0.37934	  0.26880	  0.28066	  0.03372	  0.63579	702.03998	 32.90	
  6.800	180.000	  0.62125	  0.14831	  0.41307	  0.25752	  0.28147	  0.02782	  0.63525	701.98999	 32.90	
  6.796	-166.229	  0.62584	  0.15559	  0.40569	  0.23068	  0.31387	  0.02830	  0.63950	701.94000	 32.90	
  6.808	-152.311	  0.62779	  0.16939	  0.38984	  0.20644	  0.34303	  0.02881	  0.64137	702.01001	 32.90	
  6.795	-138.383	  0.62715	  0.18659	  0.36904	  0.18090	  0.37207	  0.02973	  0.64213	702.10999	 32.90	
  6.792	-124.591	  0.62760	  0.21280	  0.33674	  0.16708	  0.39227	  0.02936	  0.64152	701.95001	 32.90	
  6.787	-110.754	  0.62719	  0.24045	  0.30687	  0.15866	  0.40180	  0.02973	  0.63882	702.72998	 32.90	
  6.800	-96.985	  0.63298	  0.27127	  0.27909	  0.15172	  0.41175	  0.03019	  0.64497	701.89001	 32.90	
  6.800	-83.015	  0.62594	  0.30174	  0.24130	  0.15461	  0.40280	  0.03058	  0.63852	701.89001	 32.90	
  6.787	-69.246	  0.62853	  0.33183	  0.21660	  0.16181	  0.39407	  0.03118	  0.64122	702.56000	 32.90	
  6.792	-55.409	  0.62825	  0.36298	  0.19065	  0.17895	  0.37158	  0.03378	  0.63923	702.15997	 32.90	
  6.795	-41.617	  0.63254	  0.38618	  0.17560	  0.20386	  0.34712	  0.03373	  0.64277	702.03003	 32.90	
  6.808	-27.689	  0.63237	  0.40041	  0.16155	  0.22978	  0.31929	  0.03471	  0.64298	702.56000	 32.80	
  6.796	-13.771	  0.63189	  0.41184	  0.15541	  0.26148	  0.28430	  0.03513	  0.64330	701.92999	 32.90	
  6.800	  0.000	  0.63017	  0.40934	  0.15667	  0.29287	  0.25082	  0.03547	  0.63990	701.94000	 32.80	
  6.796	 13.771	  0.62773	  0.39870	  0.16030	  0.32383	  0.22228	  0.03692	  0.63713	701.91998	 32.90	
  6.808	 27.689	  0.62761	  0.38370	  0.17353	  0.35537	  0.19245	  0.03516	  0.63858	701.83002	 32.80	
  6.795	 41.617	  0.63753	  0.36473	  0.19532	  0.38371	  0.17783	  0.03441	  0.65005	701.94000	 32.80	
  6.792	 55.409	  0.62311	  0.33178	  0.21312	  0.39543	  0.15888	  0.03449	  0.63490	701.90002	 32.80	
  6.787	 69.246	  0.62686	  0.30296	  0.24320	  0.41062	  0.14909	  0.03536	  0.63922	702.65002	 32.80	
  6.800	 83.015	  0.62125	  0.27137	  0.26893	  0.41393	  0.14176	  0.02979	  0.63612	702.40997	 32.80	
  6.800	 96.985	  0.63018	  0.24715	  0.30108	  0.41586	  0.14794	  0.02868	  0.64580	702.03998	 32.80	
  6.787	110.754	  0.62286	  0.21404	  0.33141	  0.39814	  0.15599	  0.03094	  0.63760	701.92999	 32.80	
  6.792	124.591	  0.62399	  0.18870	  0.36194	  0.38082	  0.17252	  0.02984	  0.63879	701.96997	 32.80	
  6.795	138.383	  0.62335	  0.16875	  0.38536	  0.35211	  0.19692	  0.02958	  0.63724	702.62000	 32.80	
  6.808	152.311	  0.62745	  0.16145	  0.40193	  0.32323	  0.22336	  0.02716	  0.64142	702.00000	 32.80	
  6.796	166.229	  0.62337	  0.15304	  0.40943	  0.29363	  0.24889	  0.03125	  0.63720	702.33002	 32.80	
  8.491	168.704	  0.61313	  0.11177	  0.44186	  0.28460	  0.23931	  0.02034	  0.63745	702.15997	 32.80	
  8.502	157.493	  0.61433	  0.12010	  0.43253	  0.31407	  0.21331	  0.01868	  0.63937	701.95001	 32.80	
  8.494	146.194	  0.61500	  0.12535	  0.42234	  0.34507	  0.18773	  0.02125	  0.63788	702.67999	 32.80	
  8.495	135.039	  0.61326	  0.14044	  0.40310	  0.37222	  0.16072	  0.02042	  0.63745	702.00000	 32.80	
  8.487	123.723	  0.61703	  0.16261	  0.37851	  0.40377	  0.13746	  0.02025	  0.64150	702.00000	 32.80	
  8.492	112.575	  0.61350	  0.18199	  0.34982	  0.42087	  0.12392	  0.02128	  0.63607	701.87000	 32.80	
  8.510	101.220	  0.61386	  0.21282	  0.31402	  0.43489	  0.11350	  0.02130	  0.63699	702.73999	 32.80	
  8.500	 90.000	  0.61293	  0.24244	  0.28213	  0.44079	  0.10850	  0.02367	  0.63520	702.64001	 32.80	
  8.510	 78.780	  0.61743	  0.27703	  0.25162	  0.44332	  0.10849	  0.02349	  0.63917	702.59998	 32.80	
  8.492	 67.425	  0.62234	  0.30725	  0.22677	  0.43602	  0.11618	  0.02588	  0.64396	702.64001	 32.80	
  8.487	 56.277	  0.61853	  0.34128	  0.19257	  0.42561	  0.12150	  0.02888	  0.63982	702.65002	 32.80	
  8.495	 44.961	  0.62328	  0.37109	  0.17264	  0.40715	  0.13742	  0.02994	  0.64346	702.60999	 32.80	
  8.494	 33.806	  0.61779	  0.39335	  0.14770	  0.37861	  0.15733	  0.02912	  0.63685	702.65997	 32.80	
  8.502	 22.507	  0.61596	  0.41301	  0.13009	  0.35114	  0.17780	  0.02973	  0.63707	701.96002	 32.80	
  8.491	 11.296	  0.61650	  0.42548	  0.12462	  0.32044	  0.20610	  0.03046	  0.63654	702.71997	 32.80	
  8.500	  0.000	  0.62224	  0.43891	  0.11752	  0.28914	  0.23942	  0.02896	  0.64257	701.92999	 32.80	
  8.491	-11.296	  0.62331	  0.44134	  0.11606	  0.25285	  0.27629	  0.02859	  0.64077	701.97998	 32.80	
  8.502	-22.507	  0.62350	  0.43641	  0.11911	  0.22253	  0.30881	  0.02866	  0.64357	702.02002	 32.80	
  8.494	-33.806	  0.62796	  0.42277	  0.13292	  0.19820	  0.34149	  0.02654	  0.64705	701.91998	 32.80	
  8.495	-44.961	  0.62249	  0.40131	  0.14665	  0.17292	  0.36612	  0.02582	  0.64221	701.92999	 32.80	
  8.487	-56.277	  0.62117	  0.38015	  0.16343	  0.15131	  0.38985	  0.02475	  0.64297	702.01001	 32.80	
  8.492	-67.425	  0.62392	  0.35181	  0.18907	  0.13609	  0.41528	  0.02492	  0.64370	702.00000	 32.80	
  8.510	-78.780	  0.62373	  0.31825	  0.21618	  0.12463	  0.43257	  0.02259	  0.64302	701.94000	 32.80	
  8.500	-90.000	  0.62227	  0.28598	  0.24826	  0.12042	  0.43571	  0.02375	  0.64014	702.12000	 32.80	
  8.510	-101.220	  0.62412	  0.25351	  0.27814	  0.11885	  0.44320	  0.02171	  0.64475	701.94000	 32.80	
  8.492	-112.575	  0.61895	  0.22119	  0.31353	  0.12615	  0.42757	  0.02383	  0.63916	701.91998	 32.80	
  8.487	-123.723	  0.61954	  0.19478	  0.34381	  0.13564	  0.41612	  0.02263	  0.63872	701.91998	 32.80	
  8.495	-135.039	  0.61682	  0.16896	  0.37093	  0.14241	  0.40354	  0.02273	  0.64066	701.85999	 32.80	
  8.494	-146.194	  0.62086	  0.15021	  0.40169	  0.16949	  0.37195	  0.02187	  0.64346	701.91998	 32.80	
  8.502	-157.493	  0.61360	  0.12924	  0.41750	  0.18966	  0.34552	  0.02300	  0.63626	701.84998	 32.80	
  8.491	-168.704	  0.61591	  0.12210	  0.43229	  0.22027	  0.31276	  0.02120	  0.64070	701.91998	 32.70	
  8.500	180.000	  0.61929	  0.11725	  0.44193	  0.24762	  0.28487	  0.02058	  0.64266	702.01001	 32.70	
 10.200	180.000	  0.60773	  0.07902	  0.46985	  0.23388	  0.27943	  0.01310	  0.64169	701.88000	 32.80	
 10.191	-170.497	  0.60395	  0.08592	  0.45683	  0.20771	  0.30696	  0.01302	  0.63821	701.78998	 32.70	
 10.210	-161.034	  0.60425	  0.09198	  0.44901	  0.17639	  0.34036	  0.01322	  0.63873	701.84998	 32.70	
 10.194	-151.526	  0.60769	  0.10613	  0.43106	  0.14905	  0.37331	  0.01286	  0.64253	701.79999	 32.70	
 10.190	-142.105	  0.60744	  0.12592	  0.40724	  0.13114	  0.39785	  0.01486	  0.64072	701.82001	 32.70	
 10.215	-132.646	  0.61027	  0.14737	  0.38147	  0.10986	  0.42722	  0.01360	  0.64459	701.82001	 32.70	
 10.203	-123.092	  0.60701	  0.16929	  0.34983	  0.09673	  0.44321	  0.01030	  0.64095	701.84998	 32.70	
 10.192	-113.678	  0.60808	  0.20126	  0.31801	  0.09017	  0.45405	  0.01387	  0.63968	701.85999	 32.70	
 10.208	-104.249	  0.61445	  0.23157	  0.28607	  0.08573	  0.46669	  0.01418	  0.64496	701.90002	 32.70	
 10.210	-94.801	  0.60797	  0.26121	  0.25194	  0.08414	  0.46241	  0.01296	  0.63543	701.88000	 32.70	
 10.210	-85.199	  0.60916	  0.29737	  0.21902	  0.08838	  0.45653	  0.01402	  0.63730	701.87000	 32.70	
 10.208	-75.751	  0.60867	  0.32731	  0.18978	  0.09058	  0.44815	  0.01508	  0.63788	701.98999	 32.70	
 10.192	-66.322	  0.60814	  0.35570	  0.16587	  0.10127	  0.43355	  0.01538	  0.63684	701.91998	 32.70	
 10.203	-56.908	  0.60913	  0.38437	  0.14115	  0.12512	  0.40783	  0.01606	  0.63427	701.92999	 32.70	
 10.215	-47.354	  0.61390	  0.41581	  0.12048	  0.14156	  0.38530	  0.01718	  0.64055	701.92999	 32.70	
 10.190	-37.895	  0.61313	  0.43549	  0.10419	  0.15961	  0.36123	  0.01707	  0.64181	701.84003	 32.70	
 10.194	-28.474	  0.61447	  0.45622	  0.09039	  0.19118	  0.32287	  0.01847	  0.64301	701.91998	 32.70	
 10.210	-18.966	  0.61378	  0.46320	  0.08303	  0.21656	  0.29622	  0.02018	  0.64335	701.84003	 32.70	
 10.191	 -9.503	  0.61657	  0.47045	  0.08066	  0.25131	  0.26298	  0.02160	  0.64594	701.89001	 32.70	
 10.200	  0.000	  0.60890	  0.46312	  0.07888	  0.27972	  0.22961	  0.02175	  0.63681	701.84998	 32.70	
 10.191	  9.503	  0.61096	  0.45834	  0.08301	  0.31794	  0.19467	  0.02055	  0.64242	701.91998	 32.70	
 10.210	 18.966	  0.60639	  0.44708	  0.08853	  0.34636	  0.16603	  0.02139	  0.63871	701.90002	 32.70	
 10.194	 28.474	  0.60610	  0.41995	  0.11083	  0.38034	  0.13798	  0.02200	  0.63591	701.78003	 32.70	
 10.190	 37.895	  0.61051	  0.40283	  0.12765	  0.40721	  0.11984	  0.02167	  0.64047	701.87000	 32.70	
 10.215	 47.354	  0.61389	  0.37602	  0.14981	  0.43106	  0.10268	  0.01836	  0.64348	701.87000	 32.70	
 10.203	 56.908	  0.60750	  0.34897	  0.16924	  0.44427	  0.09067	  0.01885	  0.63932	701.77002	 32.70	
 10.192	 66.322	  0.60904	  0.31512	  0.20119	  0.46419	  0.07665	  0.01871	  0.64138	701.87000	 32.70	
 10.208	 75.751	  0.60894	  0.28180	  0.23116	  0.47175	  0.07378	  0.01722	  0.64076	701.94000	 32.70	
 10.210	 85.199	  0.60415	  0.24550	  0.26250	  0.47290	  0.07245	  0.01596	  0.63768	701.90002	 32.70	
 10.210	 94.801	  0.60347	  0.21919	  0.29138	  0.46351	  0.07748	  0.01613	  0.63693	701.90997	 32.70	
 10.208	104.249	  0.60542	  0.18429	  0.33049	  0.45548	  0.08463	  0.01322	  0.63831	701.85999	 32.70	
 10.192	113.678	  0.60914	  0.16119	  0.36121	  0.43966	  0.10002	  0.01251	  0.64272	701.83002	 32.70	
 10.203	123.092	  0.60644	  0.13402	  0.39011	  0.42057	  0.11408	  0.01341	  0.64150	701.83002	 32.70	
 10.215	132.646	  0.60574	  0.11351	  0.41794	  0.39708	  0.13022	  0.01101	  0.64160	701.90997	 32.70	
 10.190	142.105	  0.60660	  0.10404	  0.43285	  0.36482	  0.15854	  0.01257	  0.64031	701.85999	 32.70	
 10.194	151.526	  0.60323	  0.08583	  0.45294	  0.33539	  0.17837	  0.01356	  0.63798	701.87000	 32.70	
 10.210	161.034	  0.60172	  0.08062	  0.46157	  0.30073	  0.20872	  0.01407	  0.63678	701.95001	 32.70	
 10.191	170.497	  0.60336	  0.07671	  0.46868	  0.26721	  0.24320	  0.01051	  0.63966	701.79999	 32.70	
 11.899	171.783	  0.58803	  0.04237	  0.49271	  0.25276	  0.23537	  0.00187	  0.63640	701.89001	 32.70	
 11.890	163.610	  0.59249	  0.04480	  0.49083	  0.28792	  0.20607	  0.00266	  0.64132	701.87000	 32.70	
 11.889	155.445	  0.58988	  0.05358	  0.47806	  0.31501	  0.17782	  0.00322	  0.63867	701.87000	 32.70	
 11.909	147.299	  0.58717	  0.05874	  0.46610	  0.34893	  0.14701	  0.00218	  0.63506	701.89001	 32.70	
 11.902	139.148	  0.59046	  0.07408	  0.44694	  0.38505	  0.11862	  0.00289	  0.64103	701.96997	 32.70	
 11.894	130.867	  0.59150	  0.08766	  0.42751	  0.41194	  0.09767	  0.00340	  0.63992	701.91998	 32.70	
 11.897	122.732	  0.59094	  0.10724	  0.40100	  0.43441	  0.08044	  0.00369	  0.63710	701.85999	 32.70	
 11.903	114.597	  0.58988	  0.12897	  0.37081	  0.45821	  0.06369	  0.00380	  0.63650	701.92999	 32.70	
 11.893	106.346	  0.59132	  0.15786	  0.33726	  0.47664	  0.05133	  0.00560	  0.63771	702.02002	 32.70	
 11.892	 98.155	  0.59785	  0.18659	  0.30905	  0.49157	  0.04471	  0.00380	  0.64422	701.92999	 32.70	
 11.900	 90.000	  0.59401	  0.21959	  0.26964	  0.49683	  0.03743	  0.00552	  0.63959	701.96002	 32.70	
 11.892	 81.845	  0.59625	  0.24756	  0.23921	  0.50359	  0.03526	  0.00589	  0.64315	701.95001	 32.70	
 11.893	 73.654	  0.59746	  0.28411	  0.20977	  0.49294	  0.04411	  0.00937	  0.64276	701.92999	 32.70	
 11.903	 65.403	  0.59514	  0.31831	  0.17818	  0.48762	  0.04260	  0.01185	  0.64133	701.98999	 32.70	
 11.897	 57.268	  0.59891	  0.34751	  0.15330	  0.47508	  0.05549	  0.01098	  0.64301	702.02002	 32.70	
 11.894	 49.133	  0.59852	  0.37909	  0.12835	  0.45531	  0.06660	  0.01292	  0.64154	701.98999	 32.70	
 11.902	 40.852	  0.59178	  0.40262	  0.10564	  0.42985	  0.08051	  0.01290	  0.63418	702.04999	 32.70	
 11.909	 32.701	  0.59965	  0.43689	  0.08191	  0.40486	  0.10428	  0.01380	  0.64234	702.09003	 32.70	
 11.889	 24.555	  0.59642	  0.45035	  0.07011	  0.37772	  0.12583	  0.01318	  0.63614	702.02002	 32.70	
 11.890	 16.390	  0.58997	  0.46909	  0.05403	  0.33614	  0.15223	  0.01570	  0.63242	701.98999	 32.70	
 11.899	  8.217	  0.59635	  0.48348	  0.04778	  0.30662	  0.18233	  0.01479	  0.63881	702.08002	 32.70	
 11.900	  0.000	  0.59382	  0.49024	  0.04107	  0.27442	  0.21067	  0.01652	  0.63602	702.09998	 32.70	
 11.899	 -8.217	  0.59956	  0.49231	  0.04333	  0.24694	  0.24224	  0.01545	  0.64054	702.07001	 32.70	
 11.890	-16.390	  0.59732	  0.49116	  0.04276	  0.21135	  0.27644	  0.01411	  0.63874	701.96002	 32.70	
 11.889	-24.555	  0.59884	  0.48090	  0.05171	  0.18121	  0.31397	  0.01365	  0.63508	701.91998	 32.70	
 11.909	-32.701	  0.59719	  0.46436	  0.06359	  0.15151	  0.34572	  0.01061	  0.63598	702.02002	 32.70	
 11.902	-40.852	  0.60103	  0.44976	  0.07516	  0.12975	  0.37826	  0.00846	  0.63965	701.97998	 32.70	
 11.894	-49.133	  0.60050	  0.42771	  0.09036	  0.10898	  0.40272	  0.00743	  0.64030	701.81000	 32.70	
 11.897	-57.268	  0.59851	  0.39725	  0.11475	  0.08814	  0.43131	  0.00912	  0.63713	702.03003	 32.70	
 11.903	-65.403	  0.59878	  0.36477	  0.13748	  0.07300	  0.45547	  0.00750	  0.63879	702.02002	 32.70	
 11.893	-73.654	  0.59986	  0.33892	  0.16181	  0.06026	  0.47216	  0.00397	  0.63915	701.98999	 32.70	
 11.892	-81.845	  0.59973	  0.30803	  0.19202	  0.05581	  0.47992	  0.00306	  0.64037	701.97998	 32.70	
 11.900	-90.000	  0.59919	  0.27194	  0.22297	  0.05192	  0.48709	  0.00268	  0.63774	701.91998	 32.70	
 11.892	-98.155	  0.60332	  0.24236	  0.25580	  0.04703	  0.49825	  0.00346	  0.64494	701.96997	 32.70	
 11.893	-106.346	  0.59837	  0.20796	  0.28876	  0.04827	  0.49117	  0.00479	  0.64141	701.90997	 32.70	
 11.903	-114.597	  0.59336	  0.17962	  0.31845	  0.05430	  0.47865	  0.00394	  0.63681	701.88000	 32.70	
 11.897	-122.732	  0.59424	  0.15036	  0.35076	  0.06360	  0.46768	  0.00442	  0.63875	701.98999	 32.70	
 11.894	-130.867	  0.59490	  0.12325	  0.38443	  0.07967	  0.44648	  0.00417	  0.63788	702.04999	 32.70	
 11.902	-139.148	  0.59207	  0.10235	  0.41052	  0.09554	  0.42171	  0.00419	  0.63670	701.91998	 32.70	
 11.909	-147.299	  0.59332	  0.08477	  0.43797	  0.11403	  0.39522	  0.00448	  0.63899	701.88000	 32.70	
 11.889	-155.445	  0.59510	  0.06892	  0.45786	  0.13952	  0.36808	  0.00608	  0.64100	701.91998	 32.70	
 11.890	-163.610	  0.59515	  0.05818	  0.47317	  0.16348	  0.33961	  0.00506	  0.63981	702.01001	 32.70	
 11.899	-171.783	  0.58597	  0.04507	  0.48265	  0.19045	  0.30126	  0.00490	  0.63449	701.92999	 32.70	
 11.900	180.000	  0.59446	  0.04356	  0.49505	  0.22062	  0.27555	  0.00308	  0.64189	701.95001	 32.70	
 13.600	180.000	  0.57827	  0.01124	  0.51405	  0.20686	  0.26504	 -0.00768	  0.64003	701.90002	 32.70	
 13.608	-172.853	  0.57572	  0.00813	  0.51350	  0.17691	  0.29399	 -0.00558	  0.63943	702.02002	 32.70	
 13.611	-165.583	  0.57782	  0.02032	  0.49740	  0.14893	  0.32864	 -0.00504	  0.63988	701.90997	 32.70	
 13.601	-158.353	  0.57725	  0.02752	  0.48651	  0.12263	  0.35712	 -0.00549	  0.63958	702.06000	 32.70	
 13.609	-151.210	  0.57862	  0.04578	  0.46107	  0.09923	  0.39109	 -0.00269	  0.63863	701.98999	 32.70	
 13.611	-143.999	  0.57997	  0.05911	  0.44216	  0.07497	  0.42158	 -0.00310	  0.64179	701.91998	 32.70	
 13.601	-136.825	  0.57780	  0.07627	  0.41762	  0.05874	  0.44349	 -0.00396	  0.63755	701.92999	 32.70	
 13.596	-129.640	  0.57908	  0.10063	  0.38434	  0.04175	  0.46947	 -0.00472	  0.64012	701.94000	 32.70	
