FileType=PCF
NHL=14
Date=05/31/19	12:44:14
Facility=APL
Serial=16071-14
Customer=NASA
NP=6
Mach=0.300000
Calibration=1:1
CalPts=490
TstPts=95
PortNumbering=AP Standard
Units=Torr C m/s kg/m^3 deg mm 
Theta[deg]	Phi[deg]	P1[Torr]	P2[Torr]	P3[Torr]	P4[Torr]	P5[Torr]	P6[Torr]	Pt[Torr]	Ps[Abs,Torr]	Ts[C]	
  0.000	  0.000	 45.39790	 18.52471	 20.37525	 19.46105	 18.80508	  0.99823	 45.29417	701.77002	 35.00	
  1.691	128.401	 45.35439	 16.75305	 22.10339	 21.13663	 17.13931	  0.92344	 45.29603	701.77002	 35.00	
  1.692	 77.194	 45.38724	 18.73373	 19.99896	 21.97995	 16.51908	  0.98810	 45.29461	701.72998	 35.10	
  1.699	 26.182	 45.39638	 20.61613	 18.18029	 20.84550	 17.47182	  1.02201	 45.31804	701.78003	 35.10	
  1.699	-26.182	 45.39740	 20.86937	 18.01369	 18.61021	 19.68823	  1.02169	 45.29478	701.79999	 35.10	
  1.692	-77.194	 45.40276	 19.29924	 19.49518	 17.10181	 21.20799	  0.98397	 45.30170	701.71002	 35.20	
  1.691	-128.401	 45.38341	 17.15508	 21.71101	 17.23544	 20.94693	  0.94018	 45.31269	701.78003	 35.20	
  1.700	180.000	 45.35799	 16.05929	 22.89862	 19.04856	 19.03612	  0.91903	 45.31149	701.81000	 35.20	
  3.400	180.000	 45.19876	 13.60126	 25.24051	 18.49410	 19.14138	  0.76282	 45.32259	701.70001	 35.20	
  3.388	-152.325	 45.25544	 14.36000	 24.41795	 16.47468	 21.49272	  0.79933	 45.34299	701.71002	 35.30	
  3.397	-124.529	 45.34710	 16.05070	 22.58365	 15.00307	 23.22496	  0.83924	 45.37277	701.65002	 35.30	
  3.399	-96.763	 45.37511	 18.28726	 20.20011	 14.47474	 23.86623	  0.86874	 45.36281	701.71002	 35.30	
  3.394	-69.283	 45.38862	 20.65570	 17.95334	 15.09500	 23.25999	  0.90039	 45.33123	701.65002	 35.40	
  3.400	-41.398	 45.39937	 22.56332	 16.37178	 16.58545	 21.64313	  0.93861	 45.32960	701.69000	 35.40	
  3.401	-14.021	 45.45980	 23.48035	 15.59739	 18.65961	 19.35980	  0.96121	 45.39063	701.75000	 35.40	
  3.401	 14.021	 45.42295	 23.16977	 15.82496	 21.18020	 17.06233	  0.98185	 45.35743	701.87000	 35.40	
  3.400	 41.398	 45.39223	 21.75153	 17.04817	 23.16969	 15.21691	  0.94785	 45.35984	701.88000	 35.50	
  3.394	 69.283	 45.36722	 19.49549	 18.84036	 24.31298	 14.15238	  0.89447	 45.37389	701.88000	 35.50	
  3.399	 96.763	 45.28806	 17.13116	 21.29275	 24.22717	 14.09075	  0.81963	 45.33695	701.75000	 35.50	
  3.397	124.529	 45.22425	 15.13736	 23.49798	 23.02891	 15.10405	  0.76190	 45.32193	701.84003	 35.50	
  3.388	152.325	 45.23880	 13.87445	 24.92306	 20.93398	 16.99680	  0.75234	 45.35212	701.84003	 35.60	
  5.099	161.165	 44.89695	 11.07724	 27.36512	 20.32537	 16.94335	  0.51942	 45.38816	701.82001	 35.60	
  5.109	142.013	 44.89537	 11.85090	 26.43136	 22.76780	 14.70857	  0.51419	 45.36352	701.89001	 35.60	
  5.095	123.033	 44.93007	 13.39582	 24.73407	 24.78622	 12.94082	  0.53414	 45.34963	701.88000	 35.60	
  5.105	104.191	 44.99386	 15.43952	 22.51980	 26.12330	 11.80586	  0.58386	 45.36823	701.83002	 35.60	
  5.093	 85.207	 45.08554	 17.70562	 20.08853	 26.71238	 11.38573	  0.64770	 45.37331	701.90997	 35.70	
  5.104	 66.290	 45.16303	 20.20091	 17.81836	 26.43994	 11.68746	  0.70531	 45.40861	701.90997	 35.70	
  5.094	 47.331	 45.23512	 22.51536	 15.72978	 25.33483	 12.70602	  0.73719	 45.39740	701.81000	 35.70	
  5.089	 28.397	 45.29887	 24.36237	 14.17561	 23.58204	 14.38683	  0.80708	 45.39882	701.84998	 35.80	
  5.096	  9.576	 45.35576	 25.56338	 13.22402	 21.28427	 16.53888	  0.82929	 45.41740	701.84003	 35.80	
  5.096	 -9.576	 45.36073	 25.86169	 12.97934	 18.69363	 18.73267	  0.82112	 45.43095	701.88000	 35.80	
  5.089	-28.397	 45.34900	 25.31241	 13.46761	 16.47021	 21.29102	  0.79359	 45.39880	701.96002	 35.80	
  5.094	-47.331	 45.33680	 23.99531	 14.64731	 14.40287	 23.53652	  0.74895	 45.42441	701.89001	 35.90	
  5.104	-66.290	 45.29114	 21.96635	 16.39714	 12.83406	 25.20969	  0.69806	 45.40960	701.94000	 35.90	
  5.093	-85.207	 45.21315	 19.46523	 18.38184	 12.01495	 26.04467	  0.67628	 45.37441	702.03003	 35.90	
  5.105	-104.191	 45.16833	 17.05037	 20.82601	 11.87297	 26.13370	  0.66800	 45.40341	702.03998	 35.90	
  5.095	-123.033	 45.10640	 14.85479	 23.24920	 12.53449	 25.35150	  0.64793	 45.40338	701.90997	 35.90	
  5.109	-142.013	 45.02541	 12.93043	 25.37690	 13.82352	 23.79326	  0.60129	 45.38763	701.84003	 36.00	
  5.099	-161.165	 44.97699	 11.63603	 26.83220	 15.76534	 21.64235	  0.60127	 45.41229	701.83002	 36.00	
  5.100	180.000	 44.92999	 11.03108	 27.52507	 17.86774	 19.14384	  0.54727	 45.39432	701.87000	 36.00	
  6.800	180.000	 44.41554	  8.45466	 29.58553	 17.23548	 18.97920	  0.26193	 45.40623	702.03998	 36.00	
  6.796	-166.229	 44.44104	  8.88962	 29.02217	 15.03530	 21.42733	  0.31055	 45.39074	701.94000	 36.10	
  6.808	-152.311	 44.49916	  9.82285	 27.88941	 13.04150	 23.71264	  0.31687	 45.39040	701.78003	 36.10	
  6.795	-138.383	 44.58581	 11.33444	 26.22674	 11.38822	 25.67845	  0.36392	 45.41205	701.84998	 36.10	
  6.792	-124.591	 44.64946	 13.15933	 24.15805	 10.23190	 27.09356	  0.31306	 45.38220	701.78003	 36.10	
  6.787	-110.754	 44.72400	 15.26555	 21.80981	  9.49013	 28.02324	  0.34583	 45.39091	701.77002	 36.10	
  6.800	-96.985	 44.79255	 17.52919	 19.34767	  9.26629	 28.36119	  0.35191	 45.38013	701.85999	 36.10	
  6.800	-83.015	 44.86158	 19.93045	 17.33222	  9.51683	 28.16836	  0.36237	 45.38890	701.83002	 36.10	
  6.787	-69.246	 44.90978	 22.30340	 15.25295	 10.26793	 27.30888	  0.40629	 45.37165	701.79999	 36.20	
  6.792	-55.409	 44.92394	 24.38386	 13.40616	 11.46082	 25.88699	  0.40350	 45.33850	701.83002	 36.20	
  6.795	-41.617	 44.98861	 26.13179	 11.97262	 13.19405	 23.95845	  0.38205	 45.36333	701.83002	 36.20	
  6.808	-27.689	 45.00824	 27.39309	 10.91044	 15.28061	 21.68973	  0.52220	 45.37091	701.79999	 36.20	
  6.796	-13.771	 45.00849	 27.99295	 10.37206	 17.43951	 19.13605	  0.54083	 45.37386	701.91998	 36.20	
  6.800	  0.000	 45.01785	 28.02048	 10.37912	 19.84658	 17.03589	  0.56128	 45.38027	701.90002	 36.30	
  6.796	 13.771	 44.95610	 27.37873	 10.82322	 22.32578	 14.74060	  0.58910	 45.34617	701.96997	 36.30	
  6.808	 27.689	 44.92660	 26.15702	 11.80389	 24.56707	 12.69056	  0.52020	 45.38012	702.01001	 36.30	
  6.795	 41.617	 44.87088	 24.41925	 13.22445	 26.40960	 11.03857	  0.39429	 45.38387	701.90002	 36.30	
  6.792	 55.409	 44.78941	 22.30633	 15.02755	 27.79807	  9.78866	  0.44113	 45.37390	701.90002	 36.30	
  6.787	 69.246	 44.72221	 19.97893	 17.15244	 28.65533	  9.02437	  0.40362	 45.38019	701.90002	 36.30	
  6.800	 83.015	 44.68278	 17.57105	 19.25039	 28.94733	  8.76829	  0.33150	 45.40762	701.83002	 36.40	
  6.800	 96.985	 44.61532	 15.32718	 21.74157	 28.56656	  8.98539	  0.23304	 45.40428	701.87000	 36.40	
  6.787	110.754	 44.52974	 13.19702	 24.08235	 27.58804	  9.78857	  0.07362	 45.37535	701.87000	 36.40	
  6.792	124.591	 44.47387	 11.32915	 26.13899	 26.13862	 10.91114	  0.07999	 45.38198	701.88000	 36.40	
  6.795	138.383	 44.44575	  9.86492	 27.82369	 24.22913	 12.56146	  0.07585	 45.40388	701.87000	 36.40	
  6.808	152.311	 44.39752	  8.84790	 28.96891	 21.95099	 14.56724	  0.17269	 45.40323	701.84998	 36.40	
  6.796	166.229	 44.38095	  8.33769	 29.57715	 19.42933	 16.85773	  0.18707	 45.37986	701.84998	 36.50	
  8.491	168.704	 43.72168	  5.64985	 31.59793	 18.65548	 16.52099	 -0.32575	 45.39729	701.84003	 36.50	
  8.502	157.493	 43.72389	  6.00479	 31.16391	 21.06431	 14.20932	 -0.35835	 45.40855	701.90002	 36.50	
  8.494	146.194	 43.76248	  6.74283	 30.26010	 23.56218	 12.05549	 -0.34757	 45.41605	701.88000	 36.50	
  8.495	135.039	 43.79930	  7.84353	 28.89070	 25.73940	 10.16489	 -0.38465	 45.40974	701.96997	 36.50	
  8.487	123.723	 43.85316	  9.39482	 27.15558	 27.67114	  8.56501	 -0.39405	 45.39317	701.87000	 36.60	
  8.492	112.575	 43.87500	 11.21293	 25.07237	 29.14475	  7.38592	 -0.37626	 45.37472	701.90002	 36.60	
  8.510	101.220	 43.97366	 13.34875	 22.68413	 30.28524	  6.60529	 -0.36126	 45.41022	701.95001	 36.60	
  8.500	 90.000	 44.06589	 15.67695	 20.16144	 30.89611	  6.12874	 -0.31241	 45.42060	702.00000	 36.60	
  8.510	 78.780	 44.11680	 17.96608	 17.98630	 31.02870	  6.02741	 -0.10316	 45.40637	701.79999	 36.60	
  8.492	 67.425	 44.19616	 20.39694	 15.68737	 30.58481	  6.45482	 -0.17674	 45.41070	701.88000	 36.60	
  8.487	 56.277	 44.28645	 22.77351	 13.58125	 29.71838	  7.20436	 -0.10511	 45.41533	701.77002	 36.60	
  8.495	 44.961	 44.36132	 25.02525	 11.68412	 28.34104	  8.39028	 -0.02872	 45.42682	701.90002	 36.60	
  8.494	 33.806	 44.43275	 26.96653	 10.12979	 26.60910	  9.91487	  0.07096	 45.44398	701.87000	 36.70	
  8.502	 22.507	 44.48642	 28.48120	  8.89580	 24.50665	 11.77252	  0.08829	 45.41803	701.78003	 36.70	
  8.491	 11.296	 44.55424	 29.56749	  8.05961	 22.14230	 13.91174	  0.10829	 45.42556	701.90002	 36.70	
  8.500	  0.000	 44.57977	 30.15120	  7.63484	 19.57239	 16.26599	  0.07447	 45.42967	701.78003	 36.70	
  8.491	-11.296	 44.62932	 30.19448	  7.66352	 17.28766	 18.50297	  0.05080	 45.45141	701.90002	 36.70	
  8.502	-22.507	 44.59399	 29.71835	  8.00627	 14.95906	 20.96189	  0.15947	 45.40450	701.71997	 36.70	
  8.494	-33.806	 44.58918	 28.74104	  8.83410	 12.79786	 23.40062	  0.03816	 45.42501	701.85999	 36.70	
  8.495	-44.961	 44.56157	 27.28786	  9.98300	 10.84675	 25.59444	 -0.12670	 45.41762	701.88000	 36.70	
  8.487	-56.277	 44.52997	 25.46103	 11.55365	  9.26210	 27.44424	 -0.11565	 45.43071	701.77002	 36.70	
  8.492	-67.425	 44.46362	 23.32135	 13.33917	  8.01229	 28.95540	 -0.08311	 45.43719	701.94000	 36.70	
  8.510	-78.780	 44.39513	 20.92611	 15.41865	  7.18764	 29.96124	 -0.13291	 45.42660	701.90002	 36.70	
  8.500	-90.000	 44.35204	 18.51056	 17.66686	  6.81332	 30.46240	 -0.14375	 45.45533	701.89001	 36.70	
  8.510	-101.220	 44.26686	 16.15419	 19.77040	  6.73728	 30.46227	 -0.11065	 45.43366	701.90002	 36.80	
  8.492	-112.575	 44.16566	 13.77340	 22.26465	  7.01951	 29.95329	 -0.12617	 45.43031	701.82001	 36.80	
  8.487	-123.723	 44.08355	 11.67226	 24.63919	  7.73094	 29.01114	 -0.13611	 45.42883	701.89001	 36.80	
  8.495	-135.039	 44.00656	  9.82119	 26.78936	  8.84547	 27.58819	 -0.13566	 45.41176	701.87000	 36.80	
  8.494	-146.194	 43.97435	  8.26278	 28.61272	 10.30523	 25.83202	 -0.12224	 45.46239	701.90997	 36.80	
  8.502	-157.493	 43.88250	  7.00907	 30.03601	 12.09587	 23.62117	 -0.05471	 45.45169	701.81000	 36.80	
  8.491	-168.704	 43.82407	  6.16037	 31.04503	 14.16749	 21.20158	 -0.09101	 45.44351	701.83002	 36.80	
  8.500	180.000	 43.76287	  5.72215	 31.54829	 16.42786	 18.82047	 -0.27433	 45.43413	701.83002	 36.80	
 10.200	180.000	 42.94242	  3.00719	 33.54560	 15.48191	 18.51372	 -0.72063	 45.45846	701.83002	 36.80	
 10.191	-170.497	 42.96264	  3.40861	 32.96448	 13.18990	 20.79610	 -0.62169	 45.43301	701.87000	 36.90	
 10.210	-161.034	 43.01653	  4.11032	 32.05888	 11.03016	 23.34308	 -0.54079	 45.44789	701.75000	 36.90	
 10.194	-151.526	 43.10034	  5.16614	 30.78888	  9.16131	 25.66191	 -0.53484	 45.46050	701.83002	 36.90	
 10.190	-142.105	 43.14125	  6.53763	 29.13149	  7.53688	 27.66887	 -0.56426	 45.41479	701.90997	 36.90	
 10.215	-132.646	 43.20522	  8.13029	 27.21826	  6.14986	 29.39473	 -0.61916	 45.42547	701.94000	 36.90	
 10.203	-123.092	 43.33014	 10.10267	 24.99487	  5.18806	 30.76263	 -0.59320	 45.44233	701.87000	 36.90	
 10.192	-113.678	 43.41162	 12.21812	 22.57867	  4.50746	 31.71321	 -0.59040	 45.45321	701.96002	 36.90	
 10.208	-104.249	 43.48235	 14.55116	 20.07884	  4.07195	 32.31602	 -0.65033	 45.43658	701.89001	 37.00	
 10.210	-94.801	 43.58009	 16.95338	 17.91333	  3.99285	 32.52438	 -0.66878	 45.43799	701.90002	 37.00	
 10.210	-85.199	 43.64185	 19.34000	 15.56696	  4.27158	 32.24838	 -0.70450	 45.40784	701.89001	 37.00	
 10.208	-75.751	 43.73333	 21.80619	 13.33940	  4.81153	 31.51452	 -0.64290	 45.42128	701.87000	 37.00	
 10.192	-66.322	 43.81402	 24.20096	 11.33728	  5.64870	 30.42358	 -0.60527	 45.46423	701.83002	 37.00	
 10.203	-56.908	 43.84630	 26.37420	  9.50089	  6.80911	 28.97167	 -0.63670	 45.42431	701.79999	 37.00	
 10.215	-47.354	 43.91391	 28.34322	  7.87463	  8.36663	 27.16230	 -0.65915	 45.44621	701.84998	 37.00	
 10.190	-37.895	 43.94326	 29.88379	  6.63771	 10.21094	 24.96303	 -0.60295	 45.42989	701.94000	 37.00	
 10.194	-28.474	 43.98713	 31.07674	  5.71330	 12.29329	 22.55753	 -0.50418	 45.44915	701.89001	 37.00	
 10.210	-18.966	 43.98930	 31.87838	  5.05646	 14.54827	 19.93444	 -0.42794	 45.45319	701.84998	 37.00	
 10.191	 -9.503	 43.98196	 32.21297	  4.80335	 16.96369	 17.74568	 -0.43218	 45.43639	701.83002	 37.10	
 10.200	  0.000	 43.98038	 32.13761	  4.89211	 19.23905	 15.33848	 -0.42459	 45.46740	701.85999	 37.10	
 10.191	  9.503	 43.91516	 31.54770	  5.28354	 21.80185	 12.99609	 -0.40147	 45.43064	701.90002	 37.10	
 10.210	 18.966	 43.83510	 30.60502	  5.96908	 24.26388	 10.79995	 -0.33928	 45.43281	701.90997	 37.10	
 10.194	 28.474	 43.77868	 29.20766	  7.05410	 26.52420	  8.80612	 -0.33162	 45.42597	702.01001	 37.10	
 10.190	 37.895	 43.73295	 27.52011	  8.42083	 28.47260	  7.10025	 -0.40337	 45.46958	701.90002	 37.10	
 10.215	 47.354	 43.66108	 25.49273	 10.04795	 30.15236	  5.64573	 -0.47392	 45.45701	701.83002	 37.10	
 10.203	 56.908	 43.57357	 23.13373	 12.04759	 31.47273	  4.60236	 -0.52528	 45.44353	701.84998	 37.10	
 10.192	 66.322	 43.50957	 20.72056	 14.14905	 32.42879	  3.83999	 -0.60554	 45.45794	701.96997	 37.10	
 10.208	 75.751	 43.42154	 18.35311	 16.41658	 32.97421	  3.35358	 -0.66184	 45.43907	701.91998	 37.20	
 10.210	 85.199	 43.35828	 15.99942	 18.78019	 33.07476	  3.22175	 -0.72617	 45.45664	701.84003	 37.20	
 10.210	 94.801	 43.28854	 13.58739	 21.01372	 32.67210	  3.58661	 -0.79831	 45.46120	701.94000	 37.20	
 10.208	104.249	 43.22264	 11.28998	 23.57234	 31.84566	  4.20532	 -0.82200	 45.46310	701.84998	 37.20	
 10.192	113.678	 43.16827	  9.22545	 25.92374	 30.64180	  4.99188	 -0.85324	 45.48043	701.90002	 37.20	
 10.203	123.092	 43.09774	  7.38262	 28.03876	 29.09117	  6.16934	 -0.86648	 45.46899	701.95001	 37.20	
 10.215	132.646	 43.04002	  5.81719	 29.86897	 27.24131	  7.68373	 -0.84909	 45.47738	701.84003	 37.20	
 10.190	142.105	 43.02531	  4.69765	 31.33312	 25.10771	  9.52504	 -0.80691	 45.49511	701.90002	 37.20	
 10.194	151.526	 42.98224	  3.78557	 32.48412	 22.72640	 11.54193	 -0.79169	 45.49729	701.92999	 37.20	
 10.210	161.034	 42.95608	  3.15251	 33.33816	 20.16199	 13.79626	 -0.82135	 45.49458	701.89001	 37.20	
 10.191	170.497	 42.91742	  2.90321	 33.66735	 17.84286	 16.14952	 -0.80534	 45.45427	701.84998	 37.30	
 11.899	171.783	 41.98494	  0.21265	 35.57083	 16.85920	 15.66578	 -1.20888	 45.53321	701.88000	 37.30	
 11.890	163.610	 41.94152	  0.41478	 35.27395	 19.11829	 13.29025	 -1.23900	 45.47886	701.91998	 37.30	
 11.889	155.445	 41.95738	  0.88859	 34.61657	 21.54973	 11.02411	 -1.23598	 45.48393	701.90997	 37.30	
 11.909	147.299	 41.99272	  1.52840	 33.60601	 24.08311	  8.85816	 -1.20621	 45.49588	701.87000	 37.30	
 11.902	139.148	 42.03405	  2.51643	 32.21907	 26.37420	  6.91716	 -1.25752	 45.46899	701.98999	 37.30	
 11.894	130.867	 42.06473	  3.80522	 30.56806	 28.48510	  5.16855	 -1.29609	 45.43285	701.96002	 37.30	
 11.897	122.732	 42.15990	  5.36916	 28.74059	 30.33222	  3.75502	 -1.29842	 45.48775	701.81000	 37.30	
 11.903	114.597	 42.21478	  7.11432	 26.65380	 31.92943	  2.60040	 -1.29778	 45.48593	701.96997	 37.30	
 11.893	106.346	 42.29087	  9.20291	 24.25189	 33.22363	  1.78231	 -1.27519	 45.48063	701.84003	 37.30	
 11.892	 98.155	 42.35591	 11.43349	 21.74556	 34.21767	  1.07850	 -1.24550	 45.48446	701.81000	 37.30	
 11.900	 90.000	 42.39984	 13.71593	 19.45192	 34.78917	  0.58634	 -1.21686	 45.46748	701.87000	 37.30	
 11.892	 81.845	 42.48781	 16.16478	 17.10608	 34.98182	  0.48815	 -1.14353	 45.47884	701.78998	 37.30	
 11.893	 73.654	 42.55124	 18.54122	 14.74427	 34.78482	  0.72304	 -1.09421	 45.48256	701.76001	 37.30	
 11.903	 65.403	 42.63831	 20.91923	 12.51380	 34.14575	  1.22281	 -1.02992	 45.48096	701.83002	 37.40	
 11.897	 57.268	 42.72716	 23.37798	 10.38959	 33.17157	  1.98651	 -0.94984	 45.47715	701.84998	 37.40	
 11.894	 49.133	 42.79127	 25.74371	  8.43177	 31.82142	  2.97379	 -0.90680	 45.48232	701.84998	 37.40	
 11.902	 40.852	 42.87497	 27.89729	  6.69163	 30.21877	  4.24044	 -0.85925	 45.50029	701.83002	 37.40	
 11.909	 32.701	 42.96953	 29.74412	  5.22943	 28.39327	  5.80776	 -0.79818	 45.50338	701.81000	 37.40	
 11.889	 24.555	 43.02962	 31.32126	  4.05695	 26.25031	  7.72486	 -0.75109	 45.48916	701.78003	 37.40	
 11.890	 16.390	 43.10820	 32.58107	  3.20854	 23.91493	  9.80604	 -0.81001	 45.49136	701.76001	 37.40	
 11.899	  8.217	 43.16515	 33.51910	  2.44462	 21.43201	 11.96470	 -0.87751	 45.48442	701.82001	 37.40	
 11.900	  0.000	 43.19400	 34.08641	  2.07657	 18.88220	 14.33705	 -0.88245	 45.48482	701.84998	 37.40	
 11.899	 -8.217	 43.20190	 34.24086	  1.91889	 16.54222	 16.76088	 -0.85618	 45.47431	701.92999	 37.40	
 11.890	-16.390	 43.23096	 33.91662	  2.19549	 14.12942	 19.09349	 -0.87076	 45.46842	701.95001	 37.40	
 11.889	-24.555	 43.22196	 33.20665	  2.77228	 11.80894	 21.56301	 -0.91732	 45.46650	702.03003	 37.40	
 11.909	-32.701	 43.20558	 32.21942	  3.47966	  9.66163	 24.05575	 -1.00306	 45.49432	701.95001	 37.40	
 11.902	-40.852	 43.17310	 30.87110	  4.52161	  7.72697	 26.39363	 -1.12361	 45.47472	701.81000	 37.40	
 11.894	-49.133	 43.14431	 29.18366	  5.85330	  5.94026	 28.50786	 -1.20205	 45.49744	701.94000	 37.40	
 11.897	-57.268	 43.08945	 27.19957	  7.42094	  4.45355	 30.28190	 -1.18240	 45.48896	701.89001	 37.40	
 11.903	-65.403	 43.04085	 24.99938	  9.27205	  3.34562	 31.80134	 -1.16134	 45.49691	701.88000	 37.40	
 11.893	-73.654	 42.98325	 22.62144	 11.28501	  2.47129	 33.02351	 -1.17474	 45.51208	701.84003	 37.40	
 11.892	-81.845	 42.86266	 20.11283	 13.45811	  1.79052	 33.90857	 -1.25172	 45.47471	701.87000	 37.50	
 11.900	-90.000	 42.79010	 17.71389	 15.74389	  1.35865	 34.44467	 -1.24601	 45.49955	701.84998	 37.50	
 11.892	-98.155	 42.71928	 15.30346	 18.09344	  1.21334	 34.53786	 -1.18431	 45.49553	701.94000	 37.50	
 11.893	-106.346	 42.60727	 12.86123	 20.31392	  1.43260	 34.22766	 -1.12094	 45.48293	701.89001	 37.50	
 11.903	-114.597	 42.50145	 10.52107	 22.74976	  1.79678	 33.53210	 -1.07896	 45.49913	701.89001	 37.50	
 11.897	-122.732	 42.44057	  8.46078	 25.21513	  2.49401	 32.50135	 -1.08570	 45.52040	701.90997	 37.50	
 11.894	-130.867	 42.32246	  6.49218	 27.46649	  3.46510	 31.09079	 -1.09636	 45.46972	701.90002	 37.50	
 11.902	-139.148	 42.23634	  4.72519	 29.55148	  4.69820	 29.41450	 -1.04003	 45.48417	701.84998	 37.50	
 11.909	-147.299	 42.17947	  3.29997	 31.28052	  6.21545	 27.51060	 -0.98481	 45.49632	701.89001	 37.50	
 11.889	-155.445	 42.13382	  2.14540	 32.78168	  7.99730	 25.32072	 -0.95290	 45.50151	701.91998	 37.50	
 11.890	-163.610	 42.04255	  1.17118	 34.01024	  9.95602	 22.85315	 -0.99191	 45.48192	701.89001	 37.50	
 11.899	-171.783	 42.01252	  0.62084	 34.91542	 12.12238	 20.33380	 -1.08173	 45.49609	701.79999	 37.50	
 11.900	180.000	 41.98196	  0.26096	 35.44878	 14.43448	 18.08915	 -1.18223	 45.50829	701.88000	 37.60	
 13.600	180.000	 40.78886	 -2.49175	 37.10524	 13.21345	 17.49504	 -1.55895	 45.49681	701.87000	 37.60	
 13.608	-172.853	 40.80735	 -2.21179	 36.63512	 10.92491	 19.82165	 -1.47975	 45.47834	701.96002	 37.60	
 13.611	-165.583	 40.86310	 -1.77615	 35.85165	  8.73184	 22.20545	 -1.37291	 45.50933	701.90997	 37.60	
 13.601	-158.353	 40.92854	 -0.94574	 34.65616	  6.73065	 24.73148	 -1.32177	 45.49673	701.98999	 37.60	
 13.609	-151.210	 41.01072	  0.15251	 33.19372	  4.89815	 27.03876	 -1.33527	 45.49256	701.90002	 37.60	
 13.611	-143.999	 41.08017	  1.44272	 31.54983	  3.22815	 29.15606	 -1.39996	 45.51217	701.96997	 37.60	
 13.601	-136.825	 41.14557	  2.95963	 29.69356	  1.85541	 30.98886	 -1.45584	 45.49459	701.84003	 37.60	
 13.596	-129.640	 41.23418	  4.70909	 27.58917	  0.71652	 32.64339	 -1.51714	 45.51392	701.79999	 37.60	
