FileType=PCF
NHL=14
Date=05/31/19	13:52:32
Facility=APL
Serial=16071-14
Customer=NASA
NP=6
Mach=0.450000
Calibration=1:1
CalPts=490
TstPts=95
PortNumbering=AP Standard
Units=Torr C m/s kg/m^3 deg mm 
Theta[deg]	Phi[deg]	P1[Torr]	P2[Torr]	P3[Torr]	P4[Torr]	P5[Torr]	P6[Torr]	Pt[Torr]	Ps[Abs,Torr]	Ts[C]	
  0.000	  0.000	104.95930	 43.91593	 48.87745	 46.46083	 45.12349	  2.21281	104.74887	700.96997	 47.50	
  1.691	128.401	104.86356	 39.78568	 52.63308	 50.06568	 41.09300	  2.01507	104.74734	701.01001	 47.60	
  1.692	 77.194	104.98660	 44.31889	 48.23019	 51.93328	 39.28927	  2.14535	104.81862	700.98999	 47.70	
  1.699	 26.182	105.01176	 48.46412	 44.20259	 49.51221	 41.99877	  2.27042	104.78373	701.07001	 47.70	
  1.699	-26.182	104.98399	 49.04797	 43.66832	 44.67594	 46.89612	  2.27363	104.76424	701.10999	 47.80	
  1.692	-77.194	105.02171	 45.62550	 47.01702	 41.27538	 50.29806	  2.17526	104.80941	701.09998	 47.90	
  1.691	-128.401	104.94456	 40.80186	 51.67543	 41.63519	 49.72418	  2.10495	104.76470	700.97998	 47.90	
  1.700	180.000	104.90834	 38.47417	 54.22346	 45.46338	 45.68575	  2.01292	104.82216	701.15002	 48.00	
  3.400	180.000	104.41432	 32.28649	 59.39129	 44.17699	 45.86088	  1.67366	104.74139	701.03998	 48.00	
  3.388	-152.325	104.60453	 34.10579	 57.55050	 39.52725	 50.95509	  1.75744	104.82677	701.10999	 48.00	
  3.397	-124.529	104.66808	 38.36347	 53.50335	 36.22789	 54.51839	  1.83467	104.77718	700.95001	 48.10	
  3.399	-96.763	104.86301	 43.46290	 48.46214	 35.17880	 55.94133	  1.90700	104.83785	701.03998	 48.10	
  3.394	-69.283	104.96189	 48.55774	 43.47522	 36.51754	 54.67323	  2.00722	104.83244	701.15997	 48.20	
  3.400	-41.398	105.03457	 52.76386	 39.30454	 40.02595	 51.08623	  2.06624	104.85806	701.13000	 48.20	
  3.401	-14.021	105.05826	 54.77118	 37.50180	 44.88426	 46.16719	  2.14051	104.88560	701.17999	 48.20	
  3.401	 14.021	105.00906	 53.99776	 38.08783	 50.20793	 40.63902	  2.14075	104.83896	701.08002	 48.30	
  3.400	 41.398	104.92288	 50.88241	 40.90022	 54.48123	 36.23866	  2.06269	104.84039	701.08002	 48.30	
  3.394	 69.283	104.88139	 46.07588	 45.74566	 56.95790	 33.85466	  1.96487	104.88851	701.03998	 48.40	
  3.399	 96.763	104.69478	 40.74561	 50.89985	 56.74146	 33.86901	  1.80173	104.82143	701.01001	 48.40	
  3.397	124.529	104.62142	 35.94644	 55.66390	 54.12440	 36.23037	  1.69565	104.87368	701.16998	 48.50	
  3.388	152.325	104.58893	 33.02673	 58.78309	 49.58308	 40.60863	  1.65101	104.91911	701.15997	 48.50	
  5.099	161.165	103.76982	 26.68034	 64.55834	 48.24847	 40.28116	  1.13934	104.91128	701.10999	 48.50	
  5.109	142.013	103.84052	 28.57184	 62.16558	 53.61943	 35.26843	  1.11830	104.93438	701.15997	 48.60	
  5.095	123.033	103.97802	 32.12246	 58.41181	 58.03450	 31.38824	  1.17867	104.92823	701.09998	 48.60	
  5.105	104.191	104.06001	 36.67035	 53.62802	 61.19406	 28.77703	  1.25730	104.87431	701.17999	 48.70	
  5.093	 85.207	104.18646	 42.14529	 48.23104	 62.53422	 27.71085	  1.36628	104.86051	701.08002	 48.70	
  5.104	 66.290	104.44665	 47.72380	 42.84586	 62.01602	 28.40472	  1.54901	104.96529	701.16998	 48.70	
  5.094	 47.331	104.59386	 52.78455	 37.97012	 59.50143	 30.72191	  1.67588	104.92811	701.15997	 48.80	
  5.089	 28.397	104.69700	 56.79684	 34.40412	 55.36477	 34.42307	  1.78690	104.89629	701.14001	 48.80	
  5.096	  9.576	104.80133	 59.35611	 32.25199	 50.47961	 39.21796	  1.84007	104.89720	701.04999	 48.80	
  5.096	 -9.576	104.84273	 60.04072	 31.72892	 44.93863	 44.98175	  1.81689	104.91014	701.14001	 48.90	
  5.089	-28.397	104.87906	 58.90333	 32.77503	 39.76785	 50.32818	  1.76362	104.92999	701.09003	 48.90	
  5.094	-47.331	104.83925	 55.93084	 35.40631	 35.12823	 55.15656	  1.66632	104.94955	701.09998	 48.90	
  5.104	-66.290	104.70845	 51.51256	 39.36166	 31.39089	 58.83302	  1.55474	104.91484	701.19000	 48.90	
  5.093	-85.207	104.67275	 46.22372	 44.59472	 29.47253	 60.89905	  1.47887	105.01543	701.19000	 48.90	
  5.105	-104.191	104.43439	 40.55164	 49.98144	 29.26985	 60.95165	  1.48108	104.92028	701.10999	 49.00	
  5.095	-123.033	104.25388	 35.41133	 55.17709	 30.64546	 59.20901	  1.43175	104.92640	701.14001	 49.00	
  5.109	-142.013	104.08408	 30.93303	 59.74651	 33.40821	 55.88569	  1.36252	104.93264	701.26001	 49.00	
  5.099	-161.165	103.94049	 27.88119	 63.09294	 37.91893	 51.22519	  1.29953	104.94337	701.14001	 49.10	
  5.100	180.000	103.87762	 26.49766	 64.88318	 42.85472	 45.90439	  1.21656	104.97215	701.07001	 49.10	
  6.800	180.000	102.67463	 20.51232	 69.80355	 41.22337	 45.51798	  0.56170	104.91582	701.12000	 49.10	
  6.796	-166.229	102.86839	 21.83116	 68.52416	 36.15451	 50.88814	  0.71934	105.00187	701.23999	 49.10	
  6.808	-152.311	102.95248	 24.15207	 65.84691	 31.61822	 55.85602	  0.79565	104.96783	701.14001	 49.20	
  6.795	-138.383	103.14775	 27.47561	 61.80909	 28.04567	 60.09348	  0.81523	105.01160	701.16998	 49.20	
  6.792	-124.591	103.30891	 31.58078	 57.27250	 25.35104	 63.48366	  0.82693	104.96936	701.15002	 49.20	
  6.787	-110.754	103.60204	 36.63242	 52.24029	 23.78633	 65.93310	  0.87006	105.09861	701.17999	 49.20	
  6.800	-96.985	103.66229	 41.81981	 46.87142	 23.12036	 66.71517	  0.79952	104.97387	701.15002	 49.20	
  6.800	-83.015	103.87756	 47.30378	 41.55305	 23.70881	 66.11488	  0.83613	104.97951	701.16998	 49.30	
  6.787	-69.246	104.08803	 52.52978	 36.76152	 25.49153	 64.07494	  0.89995	105.05560	701.12000	 49.30	
  6.792	-55.409	104.18183	 57.12401	 32.67295	 28.32133	 60.62826	  0.95898	105.02619	701.15002	 49.30	
  6.795	-41.617	104.27188	 60.95660	 29.40583	 32.22271	 56.37820	  1.05836	105.03063	701.02002	 49.40	
  6.808	-27.689	104.35242	 63.83146	 27.14671	 37.16901	 51.38072	  1.18759	105.04954	701.15002	 49.40	
  6.796	-13.771	104.33391	 65.26527	 26.02588	 42.40069	 45.99466	  1.28128	105.02840	701.07001	 49.40	
  6.800	  0.000	104.28880	 65.24418	 26.00571	 47.72573	 40.35775	  1.28151	105.02432	701.20001	 49.50	
  6.796	 13.771	104.20920	 63.76668	 27.00403	 53.03809	 35.18131	  1.32691	105.02147	701.07001	 49.50	
  6.808	 27.689	104.00466	 60.90529	 29.13723	 57.84510	 30.54953	  1.25357	104.94689	701.04999	 49.50	
  6.795	 41.617	103.93293	 57.09123	 32.40499	 62.21540	 26.88750	  1.10477	105.03918	701.07001	 49.50	
  6.792	 55.409	103.79588	 52.45985	 36.50208	 65.42912	 24.34956	  0.99240	105.07660	701.09003	 49.60	
  6.787	 69.246	103.61511	 47.31687	 41.26185	 67.28169	 22.70068	  0.86630	105.06980	701.04999	 49.60	
  6.800	 83.015	103.40533	 42.03332	 46.60890	 67.81642	 22.04079	  0.73556	104.98725	701.06000	 49.60	
  6.800	 96.985	103.24030	 36.44949	 51.97807	 66.98633	 22.66044	  0.63240	105.02119	701.06000	 49.60	
  6.787	110.754	103.10788	 31.67566	 57.06586	 64.77425	 24.28927	  0.52892	105.02081	701.09998	 49.60	
  6.792	124.591	103.01508	 27.52372	 61.65789	 61.37936	 26.91069	  0.47976	105.08898	701.04999	 49.60	
  6.795	138.383	102.92144	 24.18883	 65.67140	 56.92462	 30.55300	  0.44316	105.08782	701.09998	 49.70	
  6.808	152.311	102.84418	 21.77999	 68.53653	 52.00503	 35.01468	  0.45521	105.10374	701.25000	 49.70	
  6.796	166.229	102.77552	 20.60318	 69.87255	 46.63648	 40.06314	  0.50078	105.03271	701.08002	 49.70	
  8.491	168.704	101.29701	 14.19013	 74.24870	 44.88203	 39.43765	 -0.26601	105.09406	701.16998	 49.70	
  8.502	157.493	101.24230	 15.04223	 73.18521	 50.28978	 34.25949	 -0.40913	105.02348	701.08002	 49.70	
  8.494	146.194	101.38380	 16.88184	 71.18977	 55.54984	 29.58992	 -0.38327	105.09688	701.04999	 49.70	
  8.495	135.039	101.49323	 19.51179	 68.17692	 60.37988	 25.61146	 -0.39097	105.10374	701.08002	 49.80	
  8.487	123.723	101.56898	 23.31135	 63.78090	 64.95152	 21.99820	 -0.32289	105.07288	701.16998	 49.80	
  8.492	112.575	101.68021	 27.48796	 59.15524	 68.43751	 19.22447	 -0.28827	105.07472	701.13000	 49.80	
  8.510	101.220	101.88576	 32.14216	 53.96332	 70.87146	 17.28017	 -0.20896	105.10695	701.03003	 49.90	
  8.500	 90.000	102.04881	 37.34727	 48.64190	 72.19223	 16.19110	 -0.12235	105.08799	701.04999	 49.90	
  8.510	 78.780	102.14352	 42.97503	 43.02407	 72.45528	 15.98842	 -0.00783	105.02384	700.96997	 49.90	
  8.492	 67.425	102.40039	 48.41216	 37.83572	 71.62515	 16.94050	  0.10900	105.10011	701.10999	 50.00	
  8.487	 56.277	102.62240	 53.62447	 33.19323	 69.70335	 18.75227	  0.22955	105.13039	701.01001	 50.00	
  8.495	 44.961	102.75503	 58.44162	 29.03836	 66.67168	 21.40384	  0.12420	105.05949	701.09998	 50.00	
  8.494	 33.806	102.92411	 62.76081	 25.69195	 62.70668	 24.82219	  0.43446	105.07549	701.08002	 50.00	
  8.502	 22.507	103.06596	 66.44180	 22.98822	 57.91711	 28.57183	  0.66763	105.06950	701.14001	 50.10	
  8.491	 11.296	103.28638	 68.86282	 21.25892	 52.85103	 33.36990	  0.71398	105.12874	701.14001	 50.10	
  8.500	  0.000	103.32785	 70.20260	 20.18286	 47.28727	 38.64727	  0.64713	105.07024	701.17999	 50.10	
  8.491	-11.296	103.42609	 70.34698	 20.18043	 41.78520	 44.45098	  0.61364	105.09969	701.35999	 50.10	
  8.502	-22.507	103.44006	 69.37621	 21.03399	 36.20280	 49.97210	  0.53560	105.14334	701.17999	 50.10	
  8.494	-33.806	103.43907	 67.16302	 22.83119	 31.31623	 55.28645	  0.37606	105.16357	701.15002	 50.10	
  8.495	-44.961	103.38761	 63.72115	 25.42083	 27.10005	 60.06011	  0.09783	105.15310	701.16998	 50.20	
  8.487	-56.277	103.27391	 59.59361	 28.67188	 23.41440	 64.51405	  0.13059	105.15997	701.14001	 50.20	
  8.492	-67.425	103.12766	 54.87896	 32.62819	 20.56118	 68.01649	  0.09952	105.15308	701.17999	 50.20	
  8.510	-78.780	102.92455	 49.66142	 37.22929	 18.49633	 70.32494	  0.02580	105.14536	701.09003	 50.20	
  8.500	-90.000	102.72601	 44.33284	 42.31073	 17.57887	 71.39491	  0.01355	105.09785	701.09998	 50.20	
  8.510	-101.220	102.58607	 38.99599	 47.81691	 17.28381	 71.56415	  0.05955	105.18591	701.13000	 50.20	
  8.492	-112.575	102.35059	 33.35926	 53.26320	 18.22811	 70.33629	  0.13184	105.13005	701.09003	 50.30	
  8.487	-123.723	102.18641	 28.72832	 58.41624	 19.89435	 68.08488	  0.12316	105.15975	701.06000	 50.30	
  8.495	-135.039	101.93394	 24.27207	 63.12215	 22.29907	 64.61930	  0.14849	105.11113	701.08002	 50.30	
  8.494	-146.194	101.75397	 20.48649	 67.53812	 25.51089	 60.44735	  0.16650	105.08231	701.15002	 50.30	
  8.502	-157.493	101.68355	 17.45886	 70.94780	 29.64181	 55.74195	  0.16194	105.18425	701.17999	 50.30	
  8.491	-168.704	101.55193	 15.47031	 73.07531	 34.20801	 50.64825	  0.02621	105.19001	701.19000	 50.30	
  8.500	180.000	101.38421	 14.32910	 74.18436	 39.63623	 45.07681	 -0.16317	105.14496	701.27002	 50.30	
 10.200	180.000	 99.49066	  8.35016	 78.64164	 37.14524	 44.61084	 -0.96390	105.08298	701.19000	 50.30	
 10.191	-170.497	 99.65065	  9.27468	 77.48779	 32.02436	 49.85260	 -0.75565	105.13717	701.16998	 50.30	
 10.210	-161.034	 99.75701	 10.82694	 75.28620	 27.20687	 55.21280	 -0.66482	105.14510	701.15002	 50.40	
 10.194	-151.526	 99.91850	 13.30439	 72.46240	 23.13006	 60.17615	 -1.19943	105.15869	701.21997	 50.40	
 10.190	-142.105	100.06190	 16.50586	 68.64305	 19.70140	 64.72084	 -0.60265	105.08420	701.20001	 50.40	
 10.215	-132.646	100.30621	 20.59919	 64.14660	 16.61558	 69.04836	 -1.24884	105.19931	701.20001	 50.40	
 10.203	-123.092	100.44002	 25.34415	 59.22535	 14.27391	 72.06544	 -1.31275	105.13942	701.09998	 50.40	
 10.192	-113.678	100.66417	 30.21542	 54.00452	 12.49711	 74.25023	 -1.09545	105.16077	701.15002	 50.40	
 10.208	-104.249	100.90796	 35.13449	 48.51707	 11.59905	 75.72893	 -0.88332	105.17142	701.13000	 50.50	
 10.210	-94.801	101.06039	 40.85107	 42.95794	 11.35046	 76.13065	 -0.94945	105.14088	701.09998	 50.50	
 10.210	-85.199	101.25465	 46.30509	 37.69855	 12.07590	 75.44404	 -1.01965	105.13584	701.09003	 50.50	
 10.208	-75.751	101.47430	 51.67690	 32.76733	 13.52287	 73.86398	 -0.93606	105.16492	701.09998	 50.50	
 10.192	-66.322	101.62711	 56.81060	 28.64565	 15.59913	 71.37978	 -1.21273	105.11561	701.09998	 50.50	
 10.203	-56.908	101.77709	 61.64668	 24.63856	 18.30141	 67.99918	 -1.15275	105.09508	701.10999	 50.50	
 10.215	-47.354	101.94535	 66.15857	 21.05657	 21.66967	 63.49216	 -1.30844	105.16753	701.09998	 50.60	
 10.190	-37.895	102.00789	 69.73418	 18.27178	 25.76563	 58.68638	 -0.69785	105.11999	701.09998	 50.60	
 10.194	-28.474	102.05943	 72.38911	 16.06789	 30.36776	 53.59643	 -0.57233	105.13206	701.20001	 50.60	
 10.210	-18.966	102.08459	 74.27431	 14.42918	 35.46000	 48.06586	 -0.28436	105.12856	701.09998	 50.60	
 10.191	 -9.503	102.06314	 75.03151	 13.77806	 41.13412	 42.33041	 -0.13704	105.11059	701.07001	 50.70	
 10.200	  0.000	101.99651	 74.77998	 13.87266	 46.62012	 36.76233	 -0.07764	105.14239	701.15002	 50.70	
 10.191	  9.503	101.93031	 73.45940	 14.94447	 52.21696	 31.48646	 -0.04305	105.13908	701.09998	 50.70	
 10.210	 18.966	101.71519	 71.32115	 16.44687	 57.53676	 26.80912	 -0.12657	105.14343	701.09998	 50.70	
 10.194	 28.474	101.57563	 68.16479	 18.95179	 62.54018	 22.52311	 -0.45960	105.15318	701.15002	 50.60	
 10.190	 37.895	101.40467	 64.07982	 22.09781	 67.10661	 18.54468	 -0.89957	105.16170	701.16998	 50.70	
 10.215	 47.354	101.20646	 59.58574	 25.79440	 70.81162	 15.19856	 -0.95436	105.12290	701.14001	 50.70	
 10.203	 56.908	101.07362	 54.52213	 29.95618	 73.63335	 12.73855	 -0.99978	105.14831	701.12000	 50.70	
 10.192	 66.322	100.86669	 49.23616	 34.48488	 75.68579	 10.90691	 -0.74794	105.10516	701.09998	 50.70	
 10.208	 75.751	100.77574	 44.00237	 39.54916	 77.06141	  9.86281	 -0.89607	105.23848	701.15997	 50.70	
 10.210	 85.199	100.52055	 38.16917	 45.23349	 77.14955	  9.63272	 -1.02666	105.15596	701.22998	 50.70	
 10.210	 94.801	100.40029	 32.74340	 50.57154	 76.25279	 10.19859	 -1.78667	105.20641	701.16998	 50.70	
 10.208	104.249	100.17952	 27.92383	 55.91516	 74.34715	 11.51871	 -1.91582	105.14069	701.12000	 50.70	
 10.192	113.678	100.01990	 23.15274	 61.07750	 71.62309	 13.72122	 -1.93737	105.17277	701.15002	 50.80	
 10.203	123.092	 99.84902	 18.67459	 65.85601	 68.24225	 16.56528	 -2.03339	105.13842	701.21997	 50.80	
 10.215	132.646	 99.75354	 14.81996	 70.29013	 63.82702	 20.06033	 -2.00488	105.13899	701.21997	 50.80	
 10.190	142.105	 99.62394	 12.12673	 73.58105	 58.93254	 24.22773	 -1.44338	105.11265	701.21002	 50.80	
 10.194	151.526	 99.55968	 10.07715	 76.17577	 53.81329	 28.65416	 -1.37715	105.16868	701.28003	 50.80	
 10.210	161.034	 99.48340	  8.63090	 78.09147	 48.34001	 33.30868	 -1.65538	105.16657	701.27002	 50.80	
 10.191	170.497	 99.49335	  8.14338	 78.83735	 42.79355	 38.66650	 -1.16776	105.14272	701.20001	 50.80	
 11.899	171.783	 97.21146	  2.00706	 82.78577	 40.25529	 37.55989	 -2.17170	105.14291	701.19000	 50.80	
 11.890	163.610	 97.19220	  2.32490	 82.12695	 45.85129	 32.24529	 -2.99885	105.12349	701.20001	 50.90	
 11.889	155.445	 97.30352	  3.51614	 80.67145	 51.50286	 27.43827	 -3.01742	105.15565	701.03003	 50.90	
 11.909	147.299	 97.35626	  5.14705	 78.64413	 56.84306	 22.71998	 -2.83100	105.13515	701.21997	 50.90	
 11.902	139.148	 97.50425	  7.40296	 75.62181	 61.85443	 18.37643	 -3.00111	105.10832	701.23999	 50.90	
 11.894	130.867	 97.67931	 10.36279	 71.95946	 66.79641	 14.18169	 -3.04020	105.11433	701.22998	 50.90	
 11.897	122.732	 97.71776	 13.80080	 67.55599	 71.04654	 10.77677	 -3.03340	105.10828	701.10999	 51.00	
 11.903	114.597	 97.82879	 17.85167	 62.69320	 74.52333	  8.21772	 -2.96539	105.10964	701.10999	 51.00	
 11.893	106.346	 98.01393	 23.20970	 57.52720	 77.53999	  6.09989	 -2.93501	105.11212	701.10999	 51.00	
 11.892	 98.155	 98.22001	 28.29888	 52.10590	 79.59637	  4.66684	 -2.88988	105.14847	701.00000	 51.00	
 11.900	 90.000	 98.39892	 33.13414	 46.95087	 80.86121	  3.83617	 -2.81651	105.17559	701.09998	 51.00	
 11.892	 81.845	 98.51951	 38.50867	 41.10345	 81.24706	  3.58426	 -2.18389	105.11929	701.23999	 51.00	
 11.893	 73.654	 98.74419	 44.39282	 35.86355	 80.82145	  4.13465	 -2.63889	105.13447	701.14001	 51.10	
 11.903	 65.403	 98.84632	 49.74841	 30.97350	 79.43038	  5.29011	 -2.48441	105.04684	701.09998	 51.10	
 11.897	 57.268	 99.13102	 55.16661	 26.63223	 77.44572	  6.98824	 -2.22016	105.13205	701.13000	 51.10	
 11.894	 49.133	 99.33773	 60.23566	 22.39834	 74.45911	  9.25855	 -2.09409	105.14868	701.08002	 51.10	
 11.902	 40.852	 99.50723	 64.92083	 18.40073	 70.92821	 11.99180	 -1.95263	105.10286	701.15002	 51.10	
 11.909	 32.701	 99.72169	 69.28896	 14.72030	 66.85609	 15.61491	 -1.85601	105.13595	701.13000	 51.10	
 11.889	 24.555	 99.86488	 72.81586	 11.98770	 61.90593	 20.11199	 -1.76936	105.10321	701.06000	 51.10	
 11.890	 16.390	100.00884	 75.79321	  9.84368	 56.81898	 24.89576	 -1.82487	105.11140	701.09998	 51.10	
 11.899	  8.217	100.14664	 77.86393	  8.31909	 51.46051	 29.58852	 -1.19626	105.07905	701.04999	 51.10	
 11.900	  0.000	100.26936	 79.06966	  7.52531	 45.82266	 34.60180	 -1.16055	105.15032	701.15997	 51.20	
 11.899	 -8.217	100.35093	 79.34251	  7.36706	 40.20089	 40.08286	 -1.07507	105.15737	701.09998	 51.20	
 11.890	-16.390	100.39766	 78.73396	  7.88632	 34.70692	 46.17821	 -1.52770	105.14445	701.02002	 51.20	
 11.889	-24.555	100.39677	 77.34964	  9.07301	 29.49813	 51.47991	 -1.55580	105.15536	701.06000	 51.20	
 11.909	-32.701	100.27200	 74.99828	 10.84144	 24.64644	 56.81762	 -2.40068	105.09222	701.03998	 51.20	
 11.902	-40.852	100.20279	 71.92156	 13.22181	 20.50251	 61.80592	 -1.90652	105.06418	701.04999	 51.20	
 11.894	-49.133	100.11914	 68.12971	 16.23661	 16.66730	 66.70240	 -2.64063	105.10029	701.00000	 51.20	
 11.897	-57.268	 99.97054	 63.49575	 20.08957	 13.18747	 71.00702	 -2.59706	105.06823	701.08002	 51.20	
 11.903	-65.403	 99.85433	 58.70090	 24.15546	 10.15292	 74.38402	 -2.57409	105.11937	701.13000	 51.20	
 11.893	-73.654	 99.72490	 53.47692	 28.65258	  7.82696	 77.13956	 -2.08589	105.17495	701.14001	 51.20	
 11.892	-81.845	 99.55672	 48.14806	 33.19262	  6.26353	 79.06047	 -2.67855	105.19051	701.10999	 51.20	
 11.900	-90.000	 99.34653	 42.73486	 38.16973	  5.28313	 79.94453	 -2.52456	105.16083	701.10999	 51.20	
 11.892	-98.155	 99.11053	 36.86548	 43.43857	  4.84322	 80.12186	 -1.95557	105.16537	701.20001	 51.30	
 11.893	-106.346	 98.83344	 31.54234	 48.90951	  4.75309	 79.46943	 -2.52769	105.09623	701.16998	 51.30	
 11.903	-114.597	 98.51395	 26.54787	 54.42342	  5.60892	 78.16880	 -2.48011	105.09991	701.04999	 51.30	
 11.897	-122.732	 98.40429	 21.75878	 59.62848	  7.70262	 75.79762	 -2.39139	105.14166	701.04999	 51.30	
 11.894	-130.867	 98.17418	 16.69194	 64.52675	 10.43339	 72.79008	 -2.38277	105.12040	701.12000	 51.30	
 11.902	-139.148	 97.93427	 12.53952	 69.45932	 13.48704	 68.94525	 -2.30760	105.06972	701.10999	 51.30	
 11.909	-147.299	 97.83362	  9.28102	 73.61134	 16.90777	 64.23969	 -2.20417	105.16837	701.03003	 51.30	
 11.889	-155.445	 97.61331	  6.62257	 76.81194	 20.92546	 59.35490	 -2.06993	105.06538	701.14001	 51.30	
 11.890	-163.610	 97.52541	  4.59211	 79.52634	 25.11454	 54.20067	 -2.16164	105.11695	701.08002	 51.30	
 11.899	-171.783	 97.38981	  3.03766	 81.36529	 29.63869	 48.74013	 -1.65701	105.17209	701.19000	 51.30	
 11.900	180.000	 97.27660	  2.22384	 82.51884	 34.83286	 43.07301	 -2.29726	105.15583	701.09998	 51.30	
 13.600	180.000	 94.57577	 -4.07115	 86.24256	 32.19880	 41.58786	 -3.56449	105.04412	701.17999	 51.30	
 13.608	-172.853	 94.75058	 -3.41417	 85.28476	 27.42174	 47.43758	 -3.25617	105.14208	701.15997	 51.30	
 13.611	-165.583	 94.88117	 -2.01081	 83.44603	 22.64136	 52.84749	 -3.01353	105.15276	701.08002	 51.30	
 13.601	-158.353	 95.03294	  0.01784	 80.84791	 18.08480	 58.25243	 -2.90386	105.10958	701.14001	 51.30	
 13.609	-151.210	 95.14177	  2.40874	 77.91061	 13.77734	 63.26788	 -2.93376	105.10173	701.15002	 51.30	
 13.611	-143.999	 95.34618	  5.31790	 74.24745	  9.67962	 68.18807	 -3.09795	105.09972	701.26001	 51.30	
 13.601	-136.825	 95.59434	  8.80042	 69.85090	  6.34220	 72.63181	 -3.26244	105.15572	701.10999	 51.30	
 13.596	-129.640	 95.79945	 12.79231	 64.80385	  3.64266	 76.24834	 -3.38110	105.16091	701.10999	 51.30	
