FileType=PCF
NHL=14
Date=05/31/19	12:10:15
Facility=APL
Serial=16071-14
Customer=NASA
NP=6
Mach=0.230000
Calibration=1:1
CalPts=490
TstPts=95
PortNumbering=AP Standard
Units=Torr C m/s kg/m^3 deg mm 
Theta[deg]	Phi[deg]	P1[Torr]	P2[Torr]	P3[Torr]	P4[Torr]	P5[Torr]	P6[Torr]	Pt[Torr]	Ps[Abs,Torr]	Ts[C]	
  0.000	  0.000	 26.14805	 10.52622	 11.53916	 11.01760	 10.69147	  0.58255	 26.08653	702.10999	 32.70	
  1.691	128.401	 26.13649	  9.50669	 12.52590	 12.00918	  9.65634	  0.53312	 26.09711	702.20001	 32.70	
  1.692	 77.194	 26.14430	 10.63255	 11.37112	 12.45241	  9.28963	  0.57056	 26.08923	702.15002	 32.70	
  1.699	 26.182	 26.15764	 11.73375	 10.33356	 11.82027	  9.88331	  0.60257	 26.10565	702.15002	 32.70	
  1.699	-26.182	 26.16443	 11.87445	 10.19905	 10.53585	 11.15535	  0.60265	 26.10321	702.19000	 32.70	
  1.692	-77.194	 26.15828	 10.98913	 11.05521	  9.68392	 12.03356	  0.57626	 26.09463	702.22998	 32.70	
  1.691	-128.401	 26.14769	  9.77207	 12.26818	  9.78135	 11.89517	  0.54809	 26.10199	702.19000	 32.70	
  1.700	180.000	 26.12720	  9.11314	 12.94815	 10.79936	 10.81677	  0.52992	 26.09649	702.16998	 32.70	
  3.400	180.000	 26.04222	  7.68277	 14.31405	 10.49884	 10.88647	  0.44634	 26.10515	702.15997	 32.70	
  3.388	-152.325	 26.04905	  8.12720	 13.80761	  9.31449	 12.16689	  0.46992	 26.10050	702.12000	 32.70	
  3.397	-124.529	 26.10466	  9.12648	 12.74260	  8.52371	 13.14096	  0.47998	 26.11001	702.21002	 32.70	
  3.399	-96.763	 26.10991	 10.43672	 11.40200	  8.25349	 13.47343	  0.49344	 26.09971	702.10999	 32.70	
  3.394	-69.283	 26.14568	 11.76333	 10.13211	  8.54820	 13.18499	  0.51489	 26.11159	702.27002	 32.70	
  3.400	-41.398	 26.15884	 12.85627	  9.20814	  9.36744	 12.24230	  0.54302	 26.11537	702.35999	 32.70	
  3.401	-14.021	 26.17168	 13.37962	  8.78360	 10.58490	 10.95236	  0.56288	 26.12903	702.22998	 32.70	
  3.401	 14.021	 26.15323	 13.19420	  8.88832	 11.97678	  9.58364	  0.55949	 26.11123	702.21997	 32.70	
  3.400	 41.398	 26.14929	 12.36319	  9.58481	 13.13231	  8.58373	  0.53503	 26.12074	702.23999	 32.70	
  3.394	 69.283	 26.11692	 11.07683	 10.74024	 13.77655	  8.02299	  0.51542	 26.11908	702.19000	 32.70	
  3.399	 96.763	 26.09239	  9.72832	 12.06789	 13.77004	  7.99068	  0.46938	 26.12352	702.21997	 32.70	
  3.397	124.529	 26.07666	  8.58371	 13.30972	 13.07597	  8.55035	  0.44121	 26.13112	702.25000	 32.70	
  3.388	152.325	 26.05658	  7.86239	 14.12947	 11.89617	  9.54590	  0.43435	 26.13191	702.32001	 32.70	
  5.099	161.165	 25.84884	  6.32688	 15.55080	 11.54437	  9.49625	  0.24875	 26.12161	702.25000	 32.70	
  5.109	142.013	 25.85905	  6.77035	 15.00476	 12.90281	  8.30230	  0.25636	 26.12999	702.28003	 32.70	
  5.095	123.033	 25.89064	  7.59875	 14.01266	 14.05784	  7.31268	  0.24709	 26.12105	702.26001	 32.70	
  5.105	104.191	 25.91006	  8.71831	 12.72563	 14.88717	  6.67316	  0.28437	 26.12318	702.25000	 32.70	
  5.093	 85.207	 25.94737	 10.03674	 11.36646	 15.20750	  6.49040	  0.29756	 26.11173	702.19000	 32.70	
  5.104	 66.290	 26.00169	 11.49372	 10.01301	 15.07595	  6.65297	  0.39060	 26.12722	702.31000	 32.70	
  5.094	 47.331	 26.04054	 12.79605	  8.92288	 14.37994	  7.26236	  0.39337	 26.13298	702.26001	 32.70	
  5.089	 28.397	 26.07076	 13.88301	  8.02653	 13.30490	  8.17219	  0.43704	 26.12679	702.39001	 32.70	
  5.096	  9.576	 26.09398	 14.55572	  7.47276	 12.02104	  9.28608	  0.47608	 26.13392	702.19000	 32.80	
  5.096	 -9.576	 26.11665	 14.75588	  7.34395	 10.58256	 10.65627	  0.47185	 26.14318	702.34003	 32.80	
  5.089	-28.397	 26.11363	 14.42942	  7.62674	  9.29677	 12.04241	  0.45977	 26.14468	702.21002	 32.80	
  5.094	-47.331	 26.10196	 13.63978	  8.27387	  8.19466	 13.30965	  0.41521	 26.14336	702.25000	 32.80	
  5.104	-66.290	 26.07389	 12.50603	  9.20922	  7.35579	 14.27674	  0.39876	 26.13374	702.27002	 32.80	
  5.093	-85.207	 26.03291	 11.13698	 10.40366	  6.92338	 14.78651	  0.38140	 26.12408	702.17999	 32.80	
  5.105	-104.191	 26.01401	  9.72498	 11.80672	  6.90046	 14.82551	  0.36802	 26.14875	702.31000	 32.80	
  5.095	-123.033	 25.97216	  8.43741	 13.15017	  7.23421	 14.36560	  0.35051	 26.13314	702.29999	 32.80	
  5.109	-142.013	 25.93361	  7.32785	 14.35879	  7.90034	 13.45958	  0.32680	 26.13530	702.28003	 32.80	
  5.099	-161.165	 25.88061	  6.57214	 15.23408	  8.93570	 12.23470	  0.33457	 26.12738	702.27002	 32.80	
  5.100	180.000	 25.87361	  6.28195	 15.61542	 10.15369	 10.87196	  0.27054	 26.12638	702.26001	 32.80	
  6.800	180.000	 25.57328	  4.76068	 16.88554	  9.72197	 10.77390	  0.08178	 26.13405	702.27002	 32.80	
  6.796	-166.229	 25.60990	  5.02684	 16.54782	  8.50214	 12.14439	  0.13302	 26.15613	702.35999	 32.80	
  6.808	-152.311	 25.63886	  5.53733	 15.89953	  7.39334	 13.43242	  0.14618	 26.15170	702.27002	 32.90	
  6.795	-138.383	 25.67629	  6.37772	 14.90094	  6.52046	 14.55954	  0.13997	 26.14950	702.21997	 32.90	
  6.792	-124.591	 25.72172	  7.41240	 13.72581	  5.90187	 15.42698	  0.16203	 26.14508	702.25000	 32.90	
  6.787	-110.754	 25.78706	  8.68675	 12.38330	  5.53397	 15.99494	  0.17025	 26.16419	702.19000	 32.90	
  6.800	-96.985	 25.81072	  9.99607	 11.03027	  5.42052	 16.18779	  0.16229	 26.14380	702.27002	 32.90	
  6.800	-83.015	 25.86257	 11.39301	  9.76075	  5.55043	 16.03836	  0.17914	 26.16333	702.19000	 32.90	
  6.787	-69.246	 25.88875	 12.72728	  8.57397	  5.91792	 15.54429	  0.21233	 26.15069	702.34003	 32.90	
  6.792	-55.409	 25.92459	 13.93829	  7.55434	  6.57354	 14.71303	  0.19513	 26.16663	702.21997	 32.90	
  6.795	-41.617	 25.95146	 14.96116	  6.73749	  7.50402	 13.60372	  0.19462	 26.16724	702.23999	 32.90	
  6.808	-27.689	 25.96031	 15.67725	  6.20921	  8.64983	 12.29417	  0.26574	 26.16402	702.35999	 32.90	
  6.796	-13.771	 25.95050	 16.03439	  5.90594	  9.86788	 10.91943	  0.28113	 26.14984	702.31000	 32.90	
  6.800	  0.000	 25.95522	 16.02651	  5.88551	 11.25890	  9.55889	  0.25916	 26.14023	702.22998	 32.90	
  6.796	 13.771	 25.94123	 15.66756	  6.12837	 12.62745	  8.34627	  0.29270	 26.16979	702.29999	 32.90	
  6.808	 27.689	 25.90751	 14.94607	  6.70242	 13.91503	  7.21422	  0.27295	 26.15705	702.28998	 32.90	
  6.795	 41.617	 25.87970	 13.92825	  7.49586	 15.03526	  6.27136	  0.23545	 26.16094	702.21997	 32.90	
  6.792	 55.409	 25.84846	 12.70595	  8.51152	 15.89257	  5.58285	  0.20541	 26.16930	702.09003	 32.90	
  6.787	 69.246	 25.80523	 11.37764	  9.67396	 16.37704	  5.15126	  0.17147	 26.16680	702.21002	 32.90	
  6.800	 83.015	 25.76830	  9.96335	 10.95779	 16.54442	  4.98312	  0.11540	 26.16533	702.25000	 32.90	
  6.800	 96.985	 25.72406	  8.63933	 12.32537	 16.34386	  5.08996	  0.07696	 26.17016	702.17999	 32.90	
  6.787	110.754	 25.70288	  7.44254	 13.67354	 15.77968	  5.47302	  0.05445	 26.18120	702.22998	 32.90	
  6.792	124.591	 25.65593	  6.39052	 14.87768	 14.89459	  6.13966	  0.02853	 26.17229	702.25000	 32.90	
  6.795	138.383	 25.62862	  5.58475	 15.85947	 13.77350	  7.07954	  0.01558	 26.17562	702.26001	 32.90	
  6.808	152.311	 25.61277	  5.04932	 16.56602	 12.47532	  8.19255	  0.03571	 26.17526	702.28998	 32.90	
  6.796	166.229	 25.61929	  4.80342	 16.92803	 11.09402	  9.44616	  0.05034	 26.18365	702.21002	 33.00	
  8.491	168.704	 25.22694	  3.19447	 18.17392	 10.61835	  9.26052	 -0.18491	 26.19645	702.19000	 33.00	
  8.502	157.493	 25.22321	  3.39231	 17.90301	 12.01209	  7.96032	 -0.19195	 26.19241	702.21997	 33.00	
  8.494	146.194	 25.24673	  3.79908	 17.33540	 13.40898	  6.74475	 -0.18188	 26.19212	702.29999	 33.00	
  8.495	135.039	 25.27184	  4.39875	 16.54089	 14.68204	  5.67020	 -0.20705	 26.19220	702.14001	 33.00	
  8.487	123.723	 25.30233	  5.25307	 15.46399	 15.82914	  4.75822	 -0.20750	 26.18723	702.21997	 33.00	
  8.492	112.575	 25.33197	  6.30269	 14.24753	 16.72366	  4.09536	 -0.19529	 26.18587	702.20001	 33.00	
  8.510	101.220	 25.35550	  7.50850	 12.87777	 17.38950	  3.65844	 -0.18311	 26.18289	702.14001	 33.00	
  8.500	 90.000	 25.42503	  8.80883	 11.49811	 17.74902	  3.47141	 -0.15470	 26.20760	702.20001	 33.00	
  8.510	 78.780	 25.46358	 10.18078	 10.15161	 17.81818	  3.43224	 -0.10278	 26.20036	702.21997	 33.00	
  8.492	 67.425	 25.50605	 11.63155	  8.84455	 17.54254	  3.68489	 -0.06226	 26.19378	702.20001	 33.00	
  8.487	 56.277	 25.56210	 13.00422	  7.65523	 17.01362	  4.12283	 -0.02637	 26.19779	702.15002	 33.00	
  8.495	 44.961	 25.59085	 14.29052	  6.57691	 16.20971	  4.72823	  0.01240	 26.19536	702.09003	 33.00	
  8.494	 33.806	 25.61514	 15.40104	  5.68090	 15.16571	  5.58270	  0.04274	 26.17343	702.14001	 33.00	
  8.502	 22.507	 25.66710	 16.32591	  5.01325	 13.93121	  6.62782	  0.06976	 26.19513	702.20001	 33.00	
  8.491	 11.296	 25.70238	 16.93924	  4.55059	 12.57823	  7.82032	  0.04437	 26.19968	702.06000	 33.00	
  8.500	  0.000	 25.72349	 17.29348	  4.33099	 11.15176	  9.11956	  0.02217	 26.19570	702.19000	 33.10	
  8.491	-11.296	 25.75065	 17.35340	  4.33312	  9.75786	 10.47256	  0.02204	 26.20543	702.19000	 33.10	
  8.502	-22.507	 25.72036	 17.07711	  4.51466	  8.44673	 11.87254	  0.01139	 26.18839	702.15002	 33.10	
  8.494	-33.806	 25.72704	 16.50488	  4.95712	  7.20947	 13.27294	 -0.02256	 26.20728	702.22998	 33.10	
  8.495	-44.961	 25.71269	 15.65276	  5.57952	  6.13693	 14.55304	 -0.04761	 26.20064	702.19000	 33.10	
  8.487	-56.277	 25.67538	 14.55836	  6.41466	  5.26132	 15.63872	 -0.05692	 26.18677	702.19000	 33.10	
  8.492	-67.425	 25.65346	 13.32815	  7.44737	  4.58444	 16.52287	 -0.05658	 26.20558	702.16998	 33.10	
  8.510	-78.780	 25.60927	 11.95505	  8.67941	  4.16713	 17.13264	 -0.06459	 26.19438	702.15997	 33.10	
  8.500	-90.000	 25.57247	 10.53885	  9.96367	  3.92070	 17.45744	 -0.09701	 26.20512	702.21997	 33.10	
  8.510	-101.220	 25.52636	  9.17068	 11.26304	  3.89659	 17.46014	 -0.08448	 26.20288	702.17999	 33.10	
  8.492	-112.575	 25.48205	  7.81471	 12.68379	  4.08518	 17.16564	 -0.05897	 26.20080	702.14001	 33.10	
  8.487	-123.723	 25.42631	  6.57993	 14.02377	  4.41602	 16.59411	 -0.06906	 26.20098	702.16998	 33.10	
  8.495	-135.039	 25.37652	  5.49735	 15.26236	  4.96469	 15.75244	 -0.07947	 26.20267	702.12000	 33.10	
  8.494	-146.194	 25.31421	  4.58843	 16.33077	  5.78219	 14.64907	 -0.07489	 26.16510	702.22998	 33.10	
  8.502	-157.493	 25.28901	  3.89868	 17.20953	  6.80189	 13.39431	 -0.07252	 26.18365	702.22998	 33.10	
  8.491	-168.704	 25.26332	  3.42395	 17.81608	  7.96950	 12.03885	 -0.09054	 26.18793	702.25000	 33.10	
  8.500	180.000	 25.23517	  3.20471	 18.13418	  9.27613	 10.61265	 -0.14062	 26.19000	702.23999	 33.20	
 10.200	180.000	 24.73292	  1.56930	 19.27913	  8.69381	 10.41729	 -0.40665	 26.17792	702.13000	 33.20	
 10.191	-170.497	 24.77852	  1.78897	 18.98169	  7.37845	 11.83746	 -0.35395	 26.19896	702.10999	 33.20	
 10.210	-161.034	 24.79706	  2.20075	 18.44497	  6.16166	 13.23181	 -0.32501	 26.19676	702.13000	 33.20	
 10.194	-151.526	 24.83733	  2.81589	 17.65417	  5.07184	 14.56805	 -0.30452	 26.19313	702.19000	 33.20	
 10.190	-142.105	 24.86279	  3.59471	 16.65763	  4.16167	 15.75248	 -0.31406	 26.17539	702.10999	 33.20	
 10.215	-132.646	 24.89896	  4.54333	 15.48618	  3.41647	 16.80470	 -0.34528	 26.17519	702.13000	 33.20	
 10.203	-123.092	 24.95449	  5.66587	 14.19467	  2.90261	 17.62867	 -0.33396	 26.18568	702.15997	 33.20	
 10.192	-113.678	 25.02670	  6.88678	 12.83942	  2.56723	 18.24579	 -0.33651	 26.20300	702.20001	 33.20	
 10.208	-104.249	 25.06576	  8.19426	 11.44545	  2.36061	 18.57231	 -0.35414	 26.17295	702.08002	 33.20	
 10.210	-94.801	 25.09579	  9.57225	 10.10877	  2.30556	 18.67566	 -0.36727	 26.17142	702.19000	 33.20	
 10.210	-85.199	 25.16234	 11.03579	  8.75985	  2.43424	 18.50591	 -0.37511	 26.17993	702.17999	 33.20	
 10.208	-75.751	 25.22149	 12.47136	  7.47792	  2.73127	 18.09185	 -0.34335	 26.18187	702.15997	 33.20	
 10.192	-66.322	 25.24286	 13.81345	  6.30774	  3.20188	 17.40532	 -0.33238	 26.17320	702.15997	 33.20	
 10.203	-56.908	 25.27430	 15.09381	  5.24599	  3.83253	 16.52203	 -0.35784	 26.17920	702.16998	 33.20	
 10.215	-47.354	 25.29582	 16.24852	  4.34126	  4.69488	 15.41585	 -0.34738	 26.19033	702.14001	 33.30	
 10.190	-37.895	 25.32140	 17.17076	  3.67183	  5.70895	 14.16104	 -0.29909	 26.19108	702.21997	 33.30	
 10.194	-28.474	 25.33644	 17.87888	  3.19579	  6.89572	 12.80012	 -0.25238	 26.18846	702.09998	 33.30	
 10.210	-18.966	 25.34380	 18.35238	  2.82670	  8.17725	 11.36063	 -0.22471	 26.18149	702.09003	 33.30	
 10.191	 -9.503	 25.32405	 18.53019	  2.69028	  9.53465	  9.93827	 -0.22019	 26.16600	701.95001	 33.30	
 10.200	  0.000	 25.33064	 18.48611	  2.73689	 10.94586	  8.58680	 -0.21784	 26.16873	702.09003	 33.30	
 10.191	  9.503	 25.30152	 18.14067	  2.97384	 12.39258	  7.25125	 -0.20537	 26.17085	702.02002	 33.30	
 10.210	 18.966	 25.26730	 17.57530	  3.35702	 13.79916	  6.00423	 -0.17533	 26.17557	702.12000	 33.30	
 10.194	 28.474	 25.25562	 16.76253	  3.94157	 15.12371	  4.89979	 -0.15486	 26.19379	702.08002	 33.30	
 10.190	 37.895	 25.20647	 15.73287	  4.69060	 16.27750	  3.95788	 -0.19159	 26.18509	702.12000	 33.30	
 10.215	 47.354	 25.15771	 14.55345	  5.61535	 17.29285	  3.14957	 -0.22488	 26.18320	702.16998	 33.30	
 10.203	 56.908	 25.11193	 13.20899	  6.71618	 18.08527	  2.56152	 -0.25564	 26.17379	702.20001	 33.30	
 10.192	 66.322	 25.08952	 11.82076	  7.94598	 18.62336	  2.17024	 -0.28478	 26.18710	702.08002	 33.30	
 10.208	 75.751	 25.01929	 10.37346	  9.23648	 18.93736	  1.91870	 -0.31646	 26.17622	702.03003	 33.30	
 10.210	 85.199	 24.98557	  8.95014	 10.58950	 19.00033	  1.80718	 -0.36199	 26.19190	702.10999	 33.30	
 10.210	 94.801	 24.93425	  7.59259	 11.97542	 18.76270	  1.94189	 -0.39994	 26.16861	702.07001	 33.30	
 10.208	104.249	 24.89254	  6.30193	 13.37131	 18.30158	  2.22455	 -0.42550	 26.16870	702.03003	 33.30	
 10.192	113.678	 24.86402	  5.14583	 14.73379	 17.58017	  2.70832	 -0.42839	 26.18627	702.16998	 33.30	
 10.203	123.092	 24.82452	  4.10798	 15.94909	 16.65621	  3.37822	 -0.44904	 26.17167	702.16998	 33.30	
 10.215	132.646	 24.78983	  3.20110	 17.08125	 15.53182	  4.20830	 -0.44091	 26.17290	702.10999	 33.30	
 10.190	142.105	 24.78204	  2.53411	 17.98104	 14.27473	  5.25016	 -0.40789	 26.19626	702.10999	 33.30	
 10.194	151.526	 24.75627	  2.03388	 18.68629	 12.90095	  6.40692	 -0.39981	 26.19081	702.09998	 33.40	
 10.210	161.034	 24.73542	  1.69915	 19.15376	 11.49148	  7.66393	 -0.41585	 26.19844	702.03998	 33.30	
 10.191	170.497	 24.73107	  1.56647	 19.32964	 10.07016	  9.01121	 -0.42519	 26.17860	702.14001	 33.30	
 11.899	171.783	 24.16807	 -0.00988	 20.44045	  9.48783	  8.70659	 -0.66294	 26.20286	702.09003	 33.30	
 11.890	163.610	 24.16479	  0.16051	 20.24689	 10.87901	  7.35458	 -0.65682	 26.19560	702.06000	 33.40	
 11.889	155.445	 24.16407	  0.37293	 19.89964	 12.30424	  6.02392	 -0.64996	 26.20691	702.01001	 33.40	
 11.909	147.299	 24.17416	  0.72716	 19.31932	 13.68913	  4.82710	 -0.64039	 26.19236	702.03003	 33.40	
 11.902	139.148	 24.18533	  1.23568	 18.52878	 15.02040	  3.74096	 -0.66070	 26.17980	702.03003	 33.40	
 11.894	130.867	 24.22810	  2.01221	 17.51781	 16.29045	  2.79635	 -0.68548	 26.17587	702.03998	 33.40	
 11.897	122.732	 24.26244	  2.90654	 16.40405	 17.41707	  1.98287	 -0.70038	 26.18741	702.14001	 33.40	
 11.903	114.597	 24.30836	  3.93281	 15.16525	 18.35640	  1.37068	 -0.69156	 26.18630	702.13000	 33.40	
 11.893	106.346	 24.35271	  5.09934	 13.79275	 19.12470	  0.84528	 -0.67031	 26.18875	702.09003	 33.40	
 11.892	 98.155	 24.39847	  6.34261	 12.39767	 19.68952	  0.45457	 -0.65925	 26.18977	702.03998	 33.40	
 11.900	 90.000	 24.42847	  7.66928	 10.98131	 20.00222	  0.22399	 -0.63976	 26.19253	702.01001	 33.40	
 11.892	 81.845	 24.47562	  9.05733	  9.62733	 20.10482	  0.17174	 -0.59675	 26.17963	701.87000	 33.40	
 11.893	 73.654	 24.52872	 10.50191	  8.27409	 19.98092	  0.34278	 -0.55900	 26.18948	702.06000	 33.40	
 11.903	 65.403	 24.55950	 11.94914	  6.94298	 19.65543	  0.58264	 -0.52915	 26.19126	702.06000	 33.40	
 11.897	 57.268	 24.61045	 13.36814	  5.75259	 19.06804	  1.02555	 -0.49689	 26.20146	702.01001	 33.40	
 11.894	 49.133	 24.66404	 14.72060	  4.66985	 18.29841	  1.59168	 -0.46674	 26.19362	701.92999	 33.50	
 11.902	 40.852	 24.70003	 15.96474	  3.70772	 17.32537	  2.33095	 -0.42964	 26.18625	701.95001	 33.50	
 11.909	 32.701	 24.74519	 17.08953	  2.88235	 16.22239	  3.20541	 -0.40191	 26.20510	701.94000	 33.50	
 11.889	 24.555	 24.78842	 17.99154	  2.28110	 14.95073	  4.24503	 -0.38308	 26.18633	701.98999	 33.50	
 11.890	 16.390	 24.82877	 18.74335	  1.75596	 13.59061	  5.38592	 -0.42340	 26.18871	702.07001	 33.50	
 11.899	  8.217	 24.85795	 19.29760	  1.37081	 12.16970	  6.64844	 -0.44557	 26.20330	702.01001	 33.50	
 11.900	  0.000	 24.87169	 19.60588	  1.18930	 10.70662	  7.99768	 -0.44056	 26.18843	702.15002	 33.50	
 11.899	 -8.217	 24.88621	 19.69120	  1.10727	  9.31690	  9.38065	 -0.43128	 26.18556	702.14001	 33.50	
 11.890	-16.390	 24.89148	 19.54245	  1.23099	  7.91250	 10.77800	 -0.43024	 26.19060	702.10999	 33.50	
 11.889	-24.555	 24.89115	 19.15648	  1.47911	  6.57670	 12.23528	 -0.47043	 26.18154	702.04999	 33.50	
 11.909	-32.701	 24.86957	 18.56582	  1.89601	  5.34722	 13.62526	 -0.53690	 26.18539	702.08002	 33.50	
 11.902	-40.852	 24.86374	 17.76217	  2.47481	  4.27297	 14.95803	 -0.60912	 26.20255	702.03003	 33.50	
 11.894	-49.133	 24.84287	 16.74324	  3.19686	  3.32510	 16.19565	 -0.64592	 26.18018	702.10999	 33.50	
 11.897	-57.268	 24.81419	 15.59194	  4.08498	  2.47962	 17.30150	 -0.63325	 26.19734	702.02002	 33.50	
 11.903	-65.403	 24.77479	 14.29793	  5.12640	  1.80048	 18.22846	 -0.61205	 26.19079	702.08002	 33.50	
 11.893	-73.654	 24.73856	 12.92282	  6.29262	  1.32654	 18.94929	 -0.61489	 26.18860	702.10999	 33.50	
 11.892	-81.845	 24.69839	 11.51617	  7.50311	  1.00125	 19.44639	 -0.64841	 26.19893	702.03998	 33.50	
 11.900	-90.000	 24.63592	 10.04750	  8.81808	  0.80167	 19.73744	 -0.65641	 26.18373	702.03003	 33.50	
 11.892	-98.155	 24.59577	  8.62463	 10.18504	  0.74666	 19.80263	 -0.62891	 26.19488	702.07001	 33.50	
 11.893	-106.346	 24.53773	  7.26188	 11.54329	  0.86131	 19.60472	 -0.59588	 26.18549	702.17999	 33.50	
 11.903	-114.597	 24.47194	  5.92613	 12.95812	  1.06930	 19.22700	 -0.56513	 26.18090	702.06000	 33.50	
 11.897	-122.732	 24.43931	  4.75233	 14.30531	  1.42391	 18.62060	 -0.56924	 26.19935	702.21997	 33.50	
 11.894	-130.867	 24.39920	  3.62577	 15.62989	  1.93443	 17.80039	 -0.56366	 26.20571	702.15997	 33.50	
 11.902	-139.148	 24.32611	  2.61570	 16.86448	  2.57874	 16.77463	 -0.55194	 26.17363	702.02002	 33.50	
 11.909	-147.299	 24.29019	  1.80135	 17.93785	  3.39147	 15.63496	 -0.51808	 26.18070	702.17999	 33.50	
 11.889	-155.445	 24.27772	  1.16060	 18.85196	  4.40585	 14.36457	 -0.49927	 26.21081	702.15997	 33.50	
 11.890	-163.610	 24.24539	  0.62687	 19.57182	  5.54086	 12.97961	 -0.53361	 26.21291	702.14001	 33.50	
 11.899	-171.783	 24.21811	  0.25570	 20.08107	  6.75620	 11.56624	 -0.56803	 26.21940	702.09003	 33.60	
 11.900	180.000	 24.18557	  0.03373	 20.36662	  8.08560	 10.13701	 -0.63072	 26.19485	702.15002	 33.60	
 13.600	180.000	 23.49933	 -1.49955	 21.36519	  7.37667	  9.79432	 -0.84942	 26.19619	702.03998	 33.60	
 13.608	-172.853	 23.52247	 -1.28162	 21.09543	  6.06372	 11.16875	 -0.79306	 26.20331	702.00000	 33.60	
 13.611	-165.583	 23.53210	 -0.97110	 20.60703	  4.81695	 12.60375	 -0.76051	 26.18598	702.02002	 33.60	
 13.601	-158.353	 23.58305	 -0.50180	 19.93416	  3.69335	 14.03057	 -0.72278	 26.19364	702.00000	 33.60	
 13.609	-151.210	 23.61042	  0.10906	 19.07613	  2.66205	 15.35373	 -0.73561	 26.19125	702.07001	 33.60	
 13.611	-143.999	 23.64655	  0.79883	 18.08091	  1.75925	 16.59887	 -0.75253	 26.19468	701.88000	 33.60	
 13.601	-136.825	 23.69979	  1.64003	 16.95180	  0.99952	 17.71843	 -0.78589	 26.19244	702.04999	 33.60	
 13.596	-129.640	 23.75382	  2.62149	 15.71119	  0.37068	 18.71271	 -0.81486	 26.20826	702.01001	 33.60	
