FileType=PCF
NHL=14
Date=05/31/19	11:33:05
Facility=APL
Serial=16071-14
Customer=NASA
NP=6
Mach=0.080000
Calibration=1:1
CalPts=490
TstPts=95
PortNumbering=AP Standard
Units=Torr C m/s kg/m^3 deg mm 
Theta[deg]	Phi[deg]	P1[Torr]	P2[Torr]	P3[Torr]	P4[Torr]	P5[Torr]	P6[Torr]	Pt[Torr]	Ps[Abs,Torr]	Ts[C]	
  0.000	  0.000	  3.18857	  1.33787	  1.44405	  1.38669	  1.35972	  0.06289	  3.17949	702.59998	 32.50	
  1.691	128.401	  3.18637	  1.22650	  1.52449	  1.47186	  1.24619	  0.05622	  3.17914	702.50000	 32.50	
  1.692	 77.194	  3.18666	  1.33829	  1.40791	  1.52620	  1.20235	  0.05809	  3.17897	702.60999	 32.50	
  1.699	 26.182	  3.18722	  1.45376	  1.30950	  1.45028	  1.26644	  0.06297	  3.17903	702.51001	 32.50	
  1.699	-26.182	  3.18683	  1.47442	  1.29775	  1.32408	  1.39704	  0.06217	  3.17891	702.53998	 32.50	
  1.692	-77.194	  3.18658	  1.38539	  1.37549	  1.24941	  1.47729	  0.06053	  3.17662	702.57001	 32.50	
  1.691	-128.401	  3.18709	  1.26314	  1.49335	  1.25772	  1.46067	  0.05637	  3.17922	702.44000	 32.50	
  1.700	180.000	  3.18618	  1.19096	  1.57007	  1.34753	  1.36528	  0.05557	  3.17990	702.69000	 32.50	
  3.400	180.000	  3.17453	  1.00535	  1.73528	  1.30569	  1.36035	  0.04332	  3.17866	702.59998	 32.50	
  3.388	-152.325	  3.17605	  1.06277	  1.67355	  1.17351	  1.50342	  0.04467	  3.17788	702.54999	 32.50	
  3.397	-124.529	  3.17781	  1.17002	  1.54981	  1.08763	  1.61226	  0.04507	  3.17781	702.46002	 32.50	
  3.399	-96.763	  3.17936	  1.31289	  1.40274	  1.05969	  1.65548	  0.04857	  3.17619	702.51001	 32.50	
  3.394	-69.283	  3.18361	  1.46355	  1.26582	  1.09271	  1.61860	  0.05093	  3.17907	702.51001	 32.50	
  3.400	-41.398	  3.18580	  1.58862	  1.15993	  1.18474	  1.50939	  0.05205	  3.17941	702.54999	 32.50	
  3.401	-14.021	  3.18323	  1.64642	  1.11035	  1.31574	  1.36430	  0.05345	  3.17625	702.54999	 32.50	
  3.401	 14.021	  3.18400	  1.62562	  1.12255	  1.47220	  1.20973	  0.05342	  3.17846	702.59998	 32.50	
  3.400	 41.398	  3.18488	  1.53235	  1.19978	  1.60691	  1.09258	  0.05507	  3.18022	702.54999	 32.50	
  3.394	 69.283	  3.17876	  1.38758	  1.32257	  1.68474	  1.02379	  0.05012	  3.17799	702.53998	 32.50	
  3.399	 96.763	  3.17550	  1.23083	  1.47212	  1.68120	  1.02607	  0.04478	  3.17641	702.53998	 32.50	
  3.397	124.529	  3.17621	  1.09990	  1.61847	  1.60596	  1.08482	  0.04245	  3.18032	702.51001	 32.50	
  3.388	152.325	  3.17380	  1.02503	  1.70977	  1.46425	  1.20416	  0.04145	  3.17866	702.54999	 32.50	
  5.099	161.165	  3.14975	  0.82831	  1.88664	  1.42566	  1.19008	  0.02491	  3.17787	702.45001	 32.50	
  5.109	142.013	  3.14891	  0.87800	  1.81917	  1.58804	  1.04185	  0.02281	  3.17612	702.54999	 32.50	
  5.095	123.033	  3.15043	  0.97353	  1.70186	  1.72044	  0.93063	  0.02278	  3.17499	702.52002	 32.50	
  5.105	104.191	  3.15466	  1.10576	  1.55642	  1.81492	  0.86060	  0.02563	  3.17649	702.57001	 32.50	
  5.093	 85.207	  3.15975	  1.26489	  1.39577	  1.85564	  0.83394	  0.03284	  3.17847	702.59998	 32.50	
  5.104	 66.290	  3.16426	  1.43278	  1.23677	  1.83751	  0.84800	  0.03820	  3.17815	702.58002	 32.50	
  5.094	 47.331	  3.16749	  1.58485	  1.10231	  1.75654	  0.91565	  0.04107	  3.17787	702.63000	 32.50	
  5.089	 28.397	  3.16937	  1.71006	  1.00009	  1.62904	  1.02211	  0.04243	  3.17814	702.59998	 32.50	
  5.096	  9.576	  3.17267	  1.79348	  0.93604	  1.47771	  1.15828	  0.04118	  3.17791	702.64001	 32.50	
  5.096	 -9.576	  3.17470	  1.81335	  0.92219	  1.31050	  1.32469	  0.04033	  3.17827	702.54999	 32.50	
  5.089	-28.397	  3.17396	  1.77577	  0.95152	  1.15758	  1.48701	  0.03837	  3.17938	702.57001	 32.50	
  5.094	-47.331	  3.17360	  1.68111	  1.02662	  1.02738	  1.63373	  0.03441	  3.17778	702.53998	 32.50	
  5.104	-66.290	  3.17361	  1.54757	  1.14149	  0.93418	  1.74937	  0.03445	  3.18008	702.46997	 32.50	
  5.093	-85.207	  3.16935	  1.38592	  1.28974	  0.88526	  1.81693	  0.03397	  3.17796	702.62000	 32.50	
  5.105	-104.191	  3.16710	  1.23097	  1.44573	  0.88145	  1.82067	  0.03345	  3.17888	702.57001	 32.50	
  5.095	-123.033	  3.16314	  1.08217	  1.60392	  0.91956	  1.76725	  0.03216	  3.17954	702.56000	 32.50	
  5.109	-142.013	  3.16089	  0.95169	  1.74848	  0.99749	  1.66431	  0.03035	  3.17980	702.57001	 32.50	
  5.099	-161.165	  3.15528	  0.86896	  1.84691	  1.11816	  1.51451	  0.02652	  3.17957	702.45001	 32.50	
  5.100	180.000	  3.15309	  0.82685	  1.89862	  1.26459	  1.35417	  0.02649	  3.18058	702.57001	 32.50	
  6.800	180.000	  3.11745	  0.64013	  2.05059	  1.21278	  1.34229	  0.00614	  3.17843	702.57001	 32.50	
  6.796	-166.229	  3.12198	  0.67337	  2.01154	  1.06746	  1.50289	  0.00667	  3.18135	702.60999	 32.50	
  6.808	-152.311	  3.12256	  0.73211	  1.93089	  0.93348	  1.65936	  0.00838	  3.17784	702.46997	 32.50	
  6.795	-138.383	  3.12909	  0.83646	  1.81075	  0.82589	  1.79516	  0.00833	  3.17924	702.59998	 32.50	
  6.792	-124.591	  3.13247	  0.95679	  1.67069	  0.74798	  1.89587	  0.00957	  3.17982	702.64001	 32.50	
  6.787	-110.754	  3.13638	  1.10016	  1.51334	  0.70177	  1.96208	  0.01182	  3.17896	702.63000	 32.50	
  6.800	-96.985	  3.14208	  1.25539	  1.35606	  0.68409	  1.98961	  0.01063	  3.18018	702.53998	 32.50	
  6.800	-83.015	  3.14604	  1.41924	  1.19859	  0.70174	  1.96555	  0.01102	  3.17977	702.54999	 32.50	
  6.787	-69.246	  3.14721	  1.57650	  1.05706	  0.74758	  1.90033	  0.01401	  3.17775	702.46002	 32.50	
  6.792	-55.409	  3.15218	  1.72331	  0.93330	  0.82886	  1.80086	  0.01301	  3.17986	702.52002	 32.50	
  6.795	-41.617	  3.15314	  1.84130	  0.83523	  0.93404	  1.67133	  0.01511	  3.17949	702.59003	 32.50	
  6.808	-27.689	  3.15142	  1.92554	  0.76812	  1.07198	  1.51168	  0.01929	  3.17674	702.56000	 32.50	
  6.796	-13.771	  3.15367	  1.97266	  0.73543	  1.23067	  1.34603	  0.02148	  3.17868	702.58002	 32.50	
  6.800	  0.000	  3.15253	  1.97300	  0.73137	  1.38722	  1.18807	  0.02235	  3.17841	702.50000	 32.50	
  6.796	 13.771	  3.15012	  1.92848	  0.76385	  1.55460	  1.02884	  0.02367	  3.17856	702.57001	 32.50	
  6.808	 27.689	  3.14928	  1.84615	  0.82697	  1.70963	  0.89424	  0.02565	  3.18072	702.57001	 32.50	
  6.795	 41.617	  3.14523	  1.71949	  0.92804	  1.83966	  0.78751	  0.02230	  3.18019	702.54999	 32.50	
  6.792	 55.409	  3.14351	  1.57727	  1.04983	  1.93663	  0.71099	  0.02244	  3.17972	702.53003	 32.50	
  6.787	 69.246	  3.13836	  1.41794	  1.18954	  1.99920	  0.65983	  0.01889	  3.18016	702.50000	 32.50	
  6.800	 83.015	  3.13316	  1.25505	  1.34175	  2.02005	  0.64109	  0.01218	  3.17978	702.50000	 32.50	
  6.800	 96.985	  3.13007	  1.09497	  1.50552	  1.99875	  0.65874	  0.00620	  3.18118	702.62000	 32.50	
  6.787	110.754	  3.12475	  0.94877	  1.66344	  1.93017	  0.70689	  0.00384	  3.17795	702.66998	 32.50	
  6.792	124.591	  3.12164	  0.82791	  1.80560	  1.82672	  0.78525	  0.00182	  3.17994	702.58002	 32.50	
  6.795	138.383	  3.12107	  0.72877	  1.92542	  1.69322	  0.89558	  0.00055	  3.18111	702.53003	 32.50	
  6.808	152.311	  3.11640	  0.66522	  2.00737	  1.53866	  1.02834	  0.00476	  3.17782	702.64001	 32.50	
  6.796	166.229	  3.11724	  0.64038	  2.04709	  1.37374	  1.17996	  0.00506	  3.17801	702.65002	 32.50	
  8.491	168.704	  3.07096	  0.44931	  2.20091	  1.32095	  1.15669	 -0.01986	  3.17899	702.73999	 32.50	
  8.502	157.493	  3.06949	  0.46586	  2.17031	  1.48270	  1.00405	 -0.01908	  3.17814	702.67999	 32.50	
  8.494	146.194	  3.07144	  0.51701	  2.10070	  1.64993	  0.85433	 -0.02113	  3.17940	702.62000	 32.50	
  8.495	135.039	  3.07305	  0.58764	  2.00511	  1.80339	  0.72764	 -0.02440	  3.18049	702.65997	 32.50	
  8.487	123.723	  3.07411	  0.68890	  1.87628	  1.93528	  0.62069	 -0.02392	  3.17699	702.59998	 32.50	
  8.492	112.575	  3.08075	  0.81239	  1.73439	  2.04281	  0.54096	 -0.02084	  3.17890	702.70001	 32.50	
  8.510	101.220	  3.08371	  0.95734	  1.56782	  2.12134	  0.48202	 -0.01913	  3.17997	702.65002	 32.50	
  8.500	 90.000	  3.08694	  1.11218	  1.40416	  2.16090	  0.45686	 -0.01609	  3.17907	702.58002	 32.50	
  8.510	 78.780	  3.08935	  1.27367	  1.24087	  2.17054	  0.44543	 -0.01092	  3.17817	702.59003	 32.50	
  8.492	 67.425	  3.09387	  1.44511	  1.08277	  2.13626	  0.47474	 -0.00316	  3.17605	702.62000	 32.50	
  8.487	 56.277	  3.10084	  1.61062	  0.94020	  2.07457	  0.52395	 -0.00260	  3.18058	702.46997	 32.50	
  8.495	 44.961	  3.10466	  1.76251	  0.81404	  1.97810	  0.60002	  0.00061	  3.17835	702.39001	 32.50	
  8.494	 33.806	  3.10741	  1.89611	  0.70888	  1.85175	  0.70061	  0.00407	  3.17639	702.51001	 32.50	
  8.502	 22.507	  3.11214	  2.00491	  0.62503	  1.70617	  0.82168	  0.00488	  3.17977	702.46997	 32.50	
  8.491	 11.296	  3.11491	  2.07974	  0.57066	  1.54422	  0.96902	  0.00100	  3.17793	702.53998	 32.50	
  8.500	  0.000	  3.11740	  2.12028	  0.54252	  1.37818	  1.12734	 -0.00237	  3.17725	702.53003	 32.50	
  8.491	-11.296	  3.11985	  2.12815	  0.54041	  1.20841	  1.29530	 -0.00216	  3.17863	702.59998	 32.50	
  8.502	-22.507	  3.12028	  2.09739	  0.56161	  1.04856	  1.46349	 -0.00454	  3.17878	702.48999	 32.50	
  8.494	-33.806	  3.11914	  2.02535	  0.61695	  0.90424	  1.62812	 -0.00721	  3.17707	702.57001	 32.50	
  8.495	-44.961	  3.11728	  1.92451	  0.69416	  0.77512	  1.78175	 -0.01262	  3.17806	702.51001	 32.50	
  8.487	-56.277	  3.11630	  1.79733	  0.79720	  0.66804	  1.91517	 -0.01289	  3.17960	702.48999	 32.50	
  8.492	-67.425	  3.11385	  1.65343	  0.91716	  0.58698	  2.01735	 -0.01238	  3.17837	702.51001	 32.50	
  8.510	-78.780	  3.10762	  1.48759	  1.05890	  0.52589	  2.09738	 -0.01485	  3.17852	702.45001	 32.50	
  8.500	-90.000	  3.10509	  1.32055	  1.21762	  0.50030	  2.13423	 -0.01804	  3.17936	702.65997	 32.50	
  8.510	-101.220	  3.09926	  1.15285	  1.37686	  0.49110	  2.14201	 -0.01781	  3.17861	702.59003	 32.50	
  8.492	-112.575	  3.09344	  0.99263	  1.54346	  0.51884	  2.10375	 -0.01410	  3.17747	702.59003	 32.50	
  8.487	-123.723	  3.09204	  0.84795	  1.70800	  0.56783	  2.03521	 -0.01666	  3.18066	702.58002	 32.50	
  8.495	-135.039	  3.08592	  0.72531	  1.85329	  0.64310	  1.93012	 -0.01725	  3.17897	702.53003	 32.50	
  8.494	-146.194	  3.08196	  0.61864	  1.98219	  0.73831	  1.80603	 -0.01569	  3.17921	702.54999	 32.50	
  8.502	-157.493	  3.07576	  0.53367	  2.08667	  0.85658	  1.65646	 -0.01445	  3.17814	702.56000	 32.50	
  8.491	-168.704	  3.07165	  0.47732	  2.15895	  0.99755	  1.49265	 -0.01709	  3.17654	702.48999	 32.50	
  8.500	180.000	  3.07044	  0.44767	  2.20017	  1.15114	  1.32449	 -0.02278	  3.17970	702.40002	 32.50	
 10.200	180.000	  3.01326	  0.26172	  2.34031	  1.08596	  1.29452	 -0.04951	  3.17934	702.44000	 32.50	
 10.191	-170.497	  3.01487	  0.28656	  2.30211	  0.92760	  1.46867	 -0.04483	  3.17888	702.54999	 32.50	
 10.210	-161.034	  3.01708	  0.33403	  2.23436	  0.78184	  1.63418	 -0.04348	  3.17864	702.48999	 32.50	
 10.194	-151.526	  3.01982	  0.40838	  2.13847	  0.65067	  1.79527	 -0.04352	  3.17802	702.53003	 32.50	
 10.190	-142.105	  3.02522	  0.49985	  2.01875	  0.54610	  1.93592	 -0.04603	  3.17691	702.57001	 32.50	
 10.215	-132.646	  3.03087	  0.60392	  1.88547	  0.45578	  2.05952	 -0.04715	  3.17926	702.51001	 32.50	
 10.203	-123.092	  3.03559	  0.73868	  1.72614	  0.38199	  2.16418	 -0.04428	  3.17910	702.53998	 32.60	
 10.192	-113.678	  3.04154	  0.88269	  1.56563	  0.33763	  2.23361	 -0.04417	  3.17992	702.46997	 32.60	
 10.208	-104.249	  3.04474	  1.03901	  1.39813	  0.30739	  2.27723	 -0.04829	  3.17839	702.58002	 32.60	
 10.210	-94.801	  3.05035	  1.20867	  1.23124	  0.30066	  2.28530	 -0.05211	  3.17927	702.59003	 32.60	
 10.210	-85.199	  3.05535	  1.37869	  1.06992	  0.31727	  2.26417	 -0.05094	  3.17826	702.46997	 32.60	
 10.208	-75.751	  3.05949	  1.55054	  0.91450	  0.35002	  2.21642	 -0.04665	  3.18022	702.46997	 32.60	
 10.192	-66.322	  3.06427	  1.71147	  0.77920	  0.41678	  2.12950	 -0.04515	  3.17958	702.45001	 32.60	
 10.203	-56.908	  3.06843	  1.85985	  0.66053	  0.49799	  2.02439	 -0.04413	  3.17976	702.50000	 32.60	
 10.215	-47.354	  3.06793	  1.99973	  0.54943	  0.60018	  1.88641	 -0.04579	  3.17704	702.52002	 32.60	
 10.190	-37.895	  3.07187	  2.10793	  0.47047	  0.72648	  1.73655	 -0.03988	  3.17887	702.45001	 32.60	
 10.194	-28.474	  3.07514	  2.19116	  0.41106	  0.86934	  1.57399	 -0.03273	  3.17956	702.46997	 32.60	
 10.210	-18.966	  3.07338	  2.25037	  0.36655	  1.01921	  1.40314	 -0.02782	  3.17961	702.50000	 32.60	
 10.191	 -9.503	  3.07476	  2.27414	  0.35153	  1.18417	  1.23392	 -0.02668	  3.17940	702.46002	 32.60	
 10.200	  0.000	  3.07412	  2.26577	  0.35582	  1.35132	  1.06759	 -0.02661	  3.17927	702.54999	 32.60	
 10.191	  9.503	  3.07131	  2.22756	  0.37997	  1.52078	  0.90795	 -0.02386	  3.18119	702.56000	 32.60	
 10.210	 18.966	  3.06401	  2.15801	  0.42187	  1.68719	  0.75238	 -0.02266	  3.17828	702.50000	 32.60	
 10.194	 28.474	  3.06561	  2.06298	  0.50071	  1.84359	  0.62762	 -0.01794	  3.18018	702.53003	 32.60	
 10.190	 37.895	  3.06037	  1.93592	  0.59178	  1.98477	  0.51549	 -0.02303	  3.17967	702.50000	 32.60	
 10.215	 47.354	  3.05401	  1.79553	  0.69967	  2.10746	  0.41561	 -0.02659	  3.17893	702.51001	 32.60	
 10.203	 56.908	  3.05194	  1.63616	  0.83053	  2.20618	  0.34565	 -0.02912	  3.18196	702.57001	 32.60	
 10.192	 66.322	  3.04642	  1.46863	  0.97628	  2.26756	  0.29515	 -0.02987	  3.17901	702.52002	 32.60	
 10.208	 75.751	  3.04272	  1.29525	  1.13192	  2.31000	  0.26407	 -0.03489	  3.18038	702.52002	 32.60	
 10.210	 85.199	  3.03207	  1.12773	  1.29226	  2.31458	  0.25140	 -0.04109	  3.17610	702.60999	 32.60	
 10.210	 94.801	  3.03015	  0.95992	  1.46491	  2.29135	  0.27327	 -0.04521	  3.17676	702.51001	 32.60	
 10.208	104.249	  3.02731	  0.81059	  1.63011	  2.23449	  0.31010	 -0.04893	  3.17937	702.53998	 32.60	
 10.192	113.678	  3.02571	  0.67584	  1.79299	  2.14782	  0.37417	 -0.05031	  3.17932	702.41998	 32.60	
 10.203	123.092	  3.02101	  0.55635	  1.93895	  2.03901	  0.45421	 -0.05099	  3.17904	702.47998	 32.60	
 10.215	132.646	  3.01738	  0.45106	  2.07271	  1.90540	  0.55729	 -0.05300	  3.17935	702.46002	 32.60	
 10.190	142.105	  3.01333	  0.36267	  2.18274	  1.75613	  0.67398	 -0.04913	  3.17905	702.41998	 32.60	
 10.194	151.526	  3.01242	  0.30800	  2.26733	  1.59114	  0.81504	 -0.04479	  3.17991	702.47998	 32.60	
 10.210	161.034	  3.01226	  0.27146	  2.32185	  1.41975	  0.96953	 -0.04587	  3.17893	702.52002	 32.60	
 10.191	170.497	  3.01004	  0.25434	  2.34561	  1.25037	  1.12723	 -0.04948	  3.17752	702.51001	 32.60	
 11.899	171.783	  2.94249	  0.06614	  2.47758	  1.17981	  1.09187	 -0.07581	  3.17873	702.47998	 32.60	
 11.890	163.610	  2.93987	  0.08313	  2.45355	  1.34580	  0.93035	 -0.07421	  3.17582	702.52002	 32.60	
 11.889	155.445	  2.94177	  0.11179	  2.41016	  1.51995	  0.77256	 -0.07202	  3.17784	702.47998	 32.60	
 11.909	147.299	  2.94423	  0.15463	  2.34306	  1.68644	  0.62911	 -0.07506	  3.17996	702.45001	 32.60	
 11.902	139.148	  2.94638	  0.22137	  2.24761	  1.84760	  0.49828	 -0.07886	  3.17920	702.40002	 32.60	
 11.894	130.867	  2.94909	  0.31060	  2.12654	  1.99671	  0.38950	 -0.08082	  3.17879	702.37000	 32.60	
 11.897	122.732	  2.95147	  0.41000	  1.99226	  2.13154	  0.28616	 -0.08395	  3.18000	702.37000	 32.60	
 11.903	114.597	  2.95194	  0.52715	  1.84156	  2.24092	  0.20822	 -0.07954	  3.17744	702.37000	 32.60	
 11.893	106.346	  2.95771	  0.66278	  1.68133	  2.33101	  0.14658	 -0.07842	  3.17742	702.42999	 32.60	
 11.892	 98.155	  2.96291	  0.81651	  1.51057	  2.39669	  0.10537	 -0.07616	  3.17728	702.53998	 32.60	
 11.900	 90.000	  2.96390	  0.97023	  1.34219	  2.43469	  0.08079	 -0.07159	  3.17541	702.25000	 32.60	
 11.892	 81.845	  2.97063	  1.13701	  1.17616	  2.44779	  0.07266	 -0.06948	  3.17758	701.69000	 32.60	
 11.893	 73.654	  2.97479	  1.31081	  1.01363	  2.43137	  0.08515	 -0.06301	  3.17705	702.37000	 32.60	
 11.903	 65.403	  2.98049	  1.48154	  0.85999	  2.38918	  0.11677	 -0.05804	  3.17811	702.48999	 32.60	
 11.897	 57.268	  2.98564	  1.65298	  0.71545	  2.31623	  0.17052	 -0.05870	  3.17685	702.48999	 32.60	
 11.894	 49.133	  2.99052	  1.81438	  0.58547	  2.22505	  0.23470	 -0.05630	  3.17952	702.21002	 32.60	
 11.902	 40.852	  2.99685	  1.96533	  0.47220	  2.10975	  0.32265	 -0.05146	  3.17960	702.59003	 32.60	
 11.909	 32.701	  2.99946	  2.09078	  0.37632	  1.97652	  0.42590	 -0.04772	  3.17651	702.47998	 32.60	
 11.889	 24.555	  3.00149	  2.20297	  0.29556	  1.82605	  0.54340	 -0.04613	  3.17568	701.71002	 32.60	
 11.890	 16.390	  3.00891	  2.29757	  0.23459	  1.66132	  0.68382	 -0.04938	  3.17967	702.57001	 32.60	
 11.899	  8.217	  3.00926	  2.35900	  0.19064	  1.49802	  0.82927	 -0.05160	  3.17639	702.47998	 32.60	
 11.900	  0.000	  3.01487	  2.39838	  0.16680	  1.32424	  0.99549	 -0.05289	  3.17918	702.51001	 32.60	
 11.899	 -8.217	  3.01285	  2.40673	  0.16195	  1.15288	  1.16032	 -0.05296	  3.17451	702.45001	 32.60	
 11.890	-16.390	  3.01555	  2.39165	  0.17598	  0.98410	  1.33563	 -0.05380	  3.17688	702.52002	 32.60	
 11.889	-24.555	  3.01579	  2.34781	  0.20410	  0.82879	  1.50811	 -0.05828	  3.17853	702.12000	 32.60	
 11.909	-32.701	  3.01287	  2.27637	  0.25416	  0.68459	  1.67248	 -0.06457	  3.17727	701.83002	 32.60	
 11.902	-40.852	  3.01133	  2.17824	  0.32312	  0.55047	  1.83636	 -0.07315	  3.17651	702.53998	 32.60	
 11.894	-49.133	  3.01062	  2.06007	  0.40945	  0.43203	  1.98642	 -0.07790	  3.17869	701.76001	 32.60	
 11.897	-57.268	  3.00638	  1.92428	  0.51364	  0.33196	  2.11512	 -0.07729	  3.17761	701.73999	 32.60	
 11.903	-65.403	  3.00184	  1.77016	  0.63234	  0.24949	  2.22678	 -0.07794	  3.17652	701.84003	 32.60	
 11.893	-73.654	  3.00209	  1.60799	  0.77046	  0.18880	  2.31555	 -0.08066	  3.17907	702.27002	 32.60	
 11.892	-81.845	  2.99792	  1.43339	  0.92004	  0.14663	  2.38060	 -0.08459	  3.17920	701.84003	 32.60	
 11.900	-90.000	  2.99002	  1.26236	  1.07486	  0.11938	  2.41616	 -0.08620	  3.17884	702.57001	 32.60	
 11.892	-98.155	  2.98252	  1.09205	  1.23887	  0.11421	  2.41974	 -0.08457	  3.17490	701.78003	 32.60	
 11.893	-106.346	  2.97960	  0.92724	  1.40961	  0.12629	  2.40330	 -0.07937	  3.17848	701.84003	 32.60	
 11.903	-114.597	  2.97738	  0.76898	  1.58151	  0.15742	  2.35797	 -0.07345	  3.18179	701.79999	 32.60	
 11.897	-122.732	  2.96576	  0.62519	  1.74161	  0.20374	  2.27962	 -0.07204	  3.17460	701.72998	 32.60	
 11.894	-130.867	  2.96361	  0.49290	  1.90071	  0.27147	  2.18337	 -0.07295	  3.17737	701.78003	 32.60	
 11.902	-139.148	  2.96057	  0.37834	  2.04958	  0.35571	  2.06147	 -0.07330	  3.17924	701.77002	 32.60	
 11.909	-147.299	  2.95446	  0.28371	  2.17389	  0.45370	  1.92487	 -0.07228	  3.17803	701.98999	 32.60	
 11.889	-155.445	  2.95041	  0.20588	  2.28060	  0.57181	  1.77339	 -0.06914	  3.17702	701.84003	 32.60	
 11.890	-163.610	  2.94827	  0.14546	  2.36907	  0.70511	  1.60630	 -0.06888	  3.17776	702.22998	 32.60	
 11.899	-171.783	  2.94306	  0.09781	  2.43364	  0.85114	  1.43653	 -0.07011	  3.17709	701.79999	 32.60	
 11.900	180.000	  2.94090	  0.07690	  2.46686	  1.01176	  1.26083	 -0.07370	  3.17716	701.85999	 32.60	
 13.600	180.000	  2.85881	 -0.10934	  2.58602	  0.92687	  1.22249	 -0.10165	  3.17723	701.84003	 32.60	
 13.608	-172.853	  2.86254	 -0.08670	  2.55394	  0.77419	  1.39107	 -0.09813	  3.17779	701.82001	 32.60	
 13.611	-165.583	  2.86312	 -0.04858	  2.49326	  0.62180	  1.56739	 -0.09575	  3.17610	701.83002	 32.60	
 13.601	-158.353	  2.86918	  0.00492	  2.41418	  0.48912	  1.73436	 -0.09593	  3.17763	701.82001	 32.60	
 13.609	-151.210	  2.87088	  0.07228	  2.31487	  0.36366	  1.89449	 -0.09899	  3.17695	701.81000	 32.60	
 13.611	-143.999	  2.87849	  0.16079	  2.19610	  0.25810	  2.04398	 -0.09788	  3.17889	701.84998	 32.60	
 13.601	-136.825	  2.88244	  0.26122	  2.06199	  0.16608	  2.17513	 -0.09961	  3.17797	701.79999	 32.60	
 13.596	-129.640	  2.88674	  0.38268	  1.90628	  0.09195	  2.28939	 -0.10018	  3.17581	701.83002	 32.60	
