FileType=PCF
NHL=14
Date=08/24/17	09:07:28
Facility=APL
Serial=16328-2
Customer=NASA
NP=6
Mach=0.250000
Calibration=1:1
CalPts=490
TstPts=95
PortNumbering=AP Standard
Units=Torr C m/s kg/m^3 deg mm 
Theta[deg]	Phi[deg]	P1[Torr]	P2[Torr]	P3[Torr]	P4[Torr]	P5[Torr]	P6[Torr]	Pt[Torr]	Ps[Abs,Torr]	Ts[C]	
  0.000	  0.000	 30.16400	 14.67430	 15.36062	 15.53344	 15.72637	  0.47539	 30.13609	704.52301	 23.40	
  1.691	128.401	 30.19369	 14.32117	 16.30631	 16.77562	 14.41870	  0.45679	 30.16490	704.42700	 23.40	
  1.692	 77.194	 30.16227	 14.94199	 14.91843	 17.06903	 14.05812	  0.46769	 30.13336	704.42102	 23.40	
  1.699	 26.182	 30.16876	 15.71251	 13.82810	 16.20623	 14.96216	  0.46397	 30.14256	704.46997	 23.40	
  1.699	-26.182	 30.14626	 15.84782	 13.84394	 14.74466	 16.40140	  0.44801	 30.11893	704.48297	 23.40	
  1.692	-77.194	 30.14007	 15.53053	 14.96286	 13.87862	 17.24287	  0.45408	 30.11133	704.56897	 23.40	
  1.691	-128.401	 30.13564	 14.73262	 16.32006	 14.19526	 16.94568	  0.44866	 30.10508	704.48401	 23.30	
  1.700	180.000	 30.18677	 14.19411	 16.96372	 15.48346	 15.71859	  0.47008	 30.15432	704.45001	 23.30	
  3.400	180.000	 30.13255	 12.64380	 18.59146	 15.35840	 15.59843	  0.40435	 30.14448	704.55701	 23.30	
  3.388	-152.325	 30.15564	 12.44484	 18.26422	 13.85289	 17.09340	  0.39463	 30.16967	704.42700	 23.30	
  3.397	-124.529	 30.11474	 13.12209	 17.06708	 12.58190	 18.38104	  0.38728	 30.12931	704.35101	 23.30	
  3.399	-96.763	 30.10689	 14.54776	 15.61420	 12.01047	 18.92853	  0.38063	 30.13500	704.35699	 23.30	
  3.394	-69.283	 30.12947	 15.48873	 14.06964	 12.19072	 18.75873	  0.37912	 30.15617	704.49200	 23.30	
  3.400	-41.398	 30.09368	 16.67802	 12.62118	 13.11687	 17.70680	  0.38371	 30.11787	704.48999	 23.30	
  3.401	-14.021	 30.11409	 17.35598	 11.93281	 14.54847	 16.37289	  0.39017	 30.14469	704.51099	 23.30	
  3.401	 14.021	 30.10704	 17.45297	 11.91191	 16.13526	 14.77647	  0.39637	 30.13820	704.27197	 23.30	
  3.400	 41.398	 30.11010	 17.43931	 12.57317	 17.59592	 13.28175	  0.41105	 30.14625	704.38501	 23.30	
  3.394	 69.283	 30.06413	 16.72333	 13.92618	 18.50199	 12.39875	  0.42577	 30.09291	704.39600	 23.30	
  3.399	 96.763	 30.11052	 15.15449	 15.48953	 18.72116	 12.23394	  0.41713	 30.13119	704.32397	 23.30	
  3.397	124.529	 30.10577	 13.59911	 16.97208	 18.17171	 12.75813	  0.41683	 30.12247	704.46100	 23.30	
  3.388	152.325	 30.13157	 12.69937	 18.19590	 16.85964	 14.05062	  0.40457	 30.14372	704.31702	 23.30	
  5.099	161.165	 29.95363	 11.20643	 19.68262	 16.70107	 13.68719	  0.30751	 30.11248	704.42401	 23.30	
  5.109	142.013	 29.97324	 11.30135	 18.92413	 18.28399	 12.25948	  0.27563	 30.13178	704.40698	 23.20	
  5.095	123.033	 29.99472	 12.32177	 17.57634	 19.35604	 11.29309	  0.31908	 30.14292	704.28198	 23.20	
  5.105	104.191	 29.93416	 13.64312	 16.05131	 19.95494	 10.67882	  0.30801	 30.10254	704.30603	 23.20	
  5.093	 85.207	 29.92725	 15.35957	 14.43992	 20.06499	 10.54805	  0.32152	 30.11205	704.42102	 23.20	
  5.104	 66.290	 29.93277	 16.43457	 12.75048	 19.69180	 10.90940	  0.31421	 30.11351	704.47601	 23.20	
  5.094	 47.331	 29.90924	 16.84280	 11.52454	 18.80618	 11.72195	  0.29658	 30.10591	704.41302	 23.20	
  5.089	 28.397	 29.94352	 17.58673	 10.67052	 17.47675	 12.89151	  0.29614	 30.13906	704.36603	 23.20	
  5.096	  9.576	 29.91111	 18.11614	 10.17978	 15.90588	 14.52340	  0.28785	 30.10280	704.46997	 23.20	
  5.096	 -9.576	 29.91817	 18.20517	 10.18406	 14.29385	 16.15055	  0.26979	 30.10958	704.45203	 23.20	
  5.089	-28.397	 29.93458	 18.23457	 10.69150	 12.65468	 17.63086	  0.23942	 30.12533	704.41400	 23.20	
  5.094	-47.331	 29.97471	 18.24775	 11.63264	 11.46834	 19.10233	  0.18438	 30.15720	704.38000	 23.20	
  5.104	-66.290	 29.91199	 17.62473	 12.87221	 10.64951	 19.92782	  0.25096	 30.09095	704.36603	 23.20	
  5.093	-85.207	 29.93123	 15.62081	 14.59264	 10.29238	 20.30988	  0.25511	 30.10509	704.32397	 23.20	
  5.105	-104.191	 29.91748	 13.92330	 16.19208	 10.39679	 20.18666	  0.25694	 30.08225	704.42999	 23.20	
  5.095	-123.033	 29.96367	 12.49452	 17.68642	 11.01335	 19.60261	  0.27146	 30.13106	704.32599	 23.20	
  5.109	-142.013	 29.95333	 11.63072	 19.00849	 12.01298	 18.52037	  0.26904	 30.12296	704.40503	 23.20	
  5.099	-161.165	 29.91818	 10.94376	 19.72658	 13.49133	 16.90917	  0.29626	 30.07846	704.42700	 23.20	
  5.100	180.000	 29.96664	 10.65026	 19.97394	 15.12415	 15.36773	  0.30543	 30.12340	704.25500	 23.20	
  6.800	180.000	 29.68693	  9.29905	 21.21945	 14.80823	 15.04687	  0.14019	 30.10691	704.43903	 23.20	
  6.796	-166.229	 29.63002	  8.97260	 21.00622	 13.14067	 16.56294	  0.01484	 30.05490	704.46100	 23.20	
  6.808	-152.311	 29.68117	  9.16500	 20.56870	 11.70799	 18.19959	  0.02296	 30.10939	704.42999	 23.20	
  6.795	-138.383	 29.67922	  9.89576	 19.69501	 10.50854	 19.52088	 -0.00156	 30.11065	704.26703	 23.20	
  6.792	-124.591	 29.68406	 10.97958	 18.55166	  9.56188	 20.55470	 -0.02614	 30.12323	704.41101	 23.20	
  6.787	-110.754	 29.66673	 12.24181	 17.02298	  8.91636	 21.23724	 -0.02892	 30.10493	704.36200	 23.20	
  6.800	-96.985	 29.65450	 13.60061	 15.50315	  8.58685	 21.50047	 -0.05964	 30.09252	704.34003	 23.20	
  6.800	-83.015	 29.66176	 15.34027	 13.83703	  8.58980	 21.49707	  0.01364	 30.10676	704.41602	 23.20	
  6.787	-69.246	 29.65661	 16.47174	 12.26887	  8.92650	 21.10140	 -0.06798	 30.09936	704.37701	 23.20	
  6.792	-55.409	 29.63554	 17.87218	 10.96986	  9.54377	 20.51992	 -0.05058	 30.08456	704.27197	 23.20	
  6.795	-41.617	 29.64323	 18.18253	  9.92832	 10.46732	 19.51907	 -0.04804	 30.10695	704.35498	 23.20	
  6.808	-27.689	 29.63447	 18.57886	  9.08036	 11.63984	 18.18266	 -0.03541	 30.10587	704.35498	 23.20	
  6.796	-13.771	 29.63583	 18.79238	  8.59172	 13.15074	 16.58512	  0.02244	 30.09308	704.37402	 23.20	
  6.800	  0.000	 29.65843	 18.83828	  8.41151	 14.78222	 15.04079	  0.13549	 30.12651	704.42102	 23.20	
  6.796	 13.771	 29.62794	 18.87431	  8.55987	 16.33503	 13.35488	  0.09419	 30.10520	704.49200	 23.20	
  6.808	 27.689	 29.62807	 18.84675	  9.01077	 17.89388	 11.93066	  0.03330	 30.10696	704.45203	 23.20	
  6.795	 41.617	 29.60898	 18.81315	  9.77016	 19.19495	 10.73762	  0.05227	 30.08900	704.34003	 23.10	
  6.792	 55.409	 29.56893	 18.77687	 10.80414	 20.20788	  9.75212	  0.11950	 30.04891	704.34497	 23.10	
  6.787	 69.246	 29.65922	 18.72623	 12.13059	 20.99337	  9.11966	  0.07663	 30.12620	704.37701	 23.10	
  6.800	 83.015	 29.63523	 16.11367	 13.60817	 21.25807	  8.79438	  0.08893	 30.09232	704.41901	 23.10	
  6.800	 96.985	 29.66566	 14.00538	 15.30407	 21.26391	  8.84954	  0.17979	 30.11072	704.29498	 23.10	
  6.787	110.754	 29.69159	 12.48790	 16.85526	 20.86247	  9.22456	  0.04376	 30.10925	704.34900	 23.10	
  6.792	124.591	 29.68372	 11.21212	 18.38921	 20.27650	  9.84599	  0.06664	 30.09680	704.42200	 23.10	
  6.795	138.383	 29.67656	 10.15242	 19.55607	 19.24709	 10.78677	  0.03597	 30.07862	704.50000	 23.10	
  6.808	152.311	 29.66466	  9.28744	 20.48370	 17.95105	 11.95469	  0.04969	 30.07058	704.60498	 23.10	
  6.796	166.229	 29.69417	  8.79703	 20.99281	 16.38789	 13.33628	  0.04398	 30.10077	704.42798	 23.10	
  8.491	168.704	 29.29956	  6.90735	 22.33633	 16.06318	 12.93333	 -0.16015	 30.09354	704.32898	 23.10	
  8.502	157.493	 29.29162	  7.28911	 21.82420	 17.55867	 11.47214	 -0.15176	 30.07367	704.45502	 23.10	
  8.494	146.194	 29.28786	  7.99406	 20.98516	 19.08193	 10.20160	 -0.16116	 30.06983	704.43103	 23.10	
  8.495	135.039	 29.29618	  8.93580	 20.04232	 20.29819	  9.08339	 -0.19122	 30.07278	704.36902	 23.10	
  8.487	123.723	 29.28557	 10.09843	 18.77712	 21.29960	  8.13647	 -0.19702	 30.07127	704.41101	 23.10	
  8.492	112.575	 29.28446	 11.39158	 17.24829	 21.95146	  7.51103	 -0.20425	 30.08255	704.48297	 23.10	
  8.510	101.220	 29.30450	 12.81906	 15.70629	 22.46370	  7.10525	 -0.21783	 30.10666	704.27502	 23.10	
  8.500	 90.000	 29.26903	 14.47066	 14.01655	 22.58201	  6.95858	 -0.18631	 30.09412	704.43103	 23.10	
  8.510	 78.780	 29.24230	 16.13404	 12.36312	 22.41362	  7.09593	 -0.16254	 30.07906	704.32098	 23.10	
  8.492	 67.425	 29.22587	 17.64616	 10.93949	 21.92509	  7.46596	 -0.15032	 30.08084	704.39600	 23.10	
  8.487	 56.277	 29.19699	 19.16440	  9.67392	 21.12983	  8.09959	 -0.14466	 30.06434	704.41400	 23.10	
  8.495	 44.961	 29.19925	 20.41103	  8.54023	 20.22344	  9.05257	 -0.14961	 30.07858	704.41400	 23.10	
  8.494	 33.806	 29.20241	 21.38054	  7.66876	 18.98210	 10.23322	 -0.16266	 30.08362	704.51501	 23.10	
  8.502	 22.507	 29.20867	 22.04608	  7.05456	 17.49736	 11.47043	 -0.20775	 30.08718	704.39600	 23.10	
  8.491	 11.296	 29.24747	 22.52594	  6.69730	 16.01903	 12.89556	 -0.24634	 30.11274	704.44501	 23.10	
  8.500	  0.000	 29.24089	 22.66301	  6.55478	 14.36867	 14.54272	 -0.24259	 30.10352	704.53101	 23.00	
  8.491	-11.296	 29.22431	 22.46213	  6.72562	 12.60364	 16.27277	 -0.23814	 30.08455	704.48602	 23.00	
  8.502	-22.507	 29.23432	 21.97930	  7.11480	 11.22510	 17.80173	 -0.25840	 30.09857	704.46698	 23.00	
  8.494	-33.806	 29.22419	 21.27596	  7.79601	  9.91721	 19.31645	 -0.28440	 30.07558	704.39697	 23.00	
  8.495	-44.961	 29.23101	 20.26949	  8.72542	  8.77936	 20.51959	 -0.30317	 30.08185	704.58801	 23.00	
  8.487	-56.277	 29.25674	 19.01017	  9.89610	  7.89169	 21.46195	 -0.31343	 30.08938	704.48700	 23.00	
  8.492	-67.425	 29.26801	 17.49938	 11.16265	  7.25537	 22.19582	 -0.33917	 30.10099	704.44501	 23.00	
  8.510	-78.780	 29.23915	 15.89683	 12.56950	  6.83773	 22.66294	 -0.35608	 30.07180	704.32599	 23.00	
  8.500	-90.000	 29.24198	 14.19050	 14.27574	  6.69349	 22.82364	 -0.35314	 30.07182	704.29602	 23.00	
  8.510	-101.220	 29.23972	 12.54327	 15.92106	  6.79997	 22.68531	 -0.32141	 30.06702	704.40503	 23.10	
  8.492	-112.575	 29.26450	 11.19068	 17.48036	  7.20714	 22.21773	 -0.26611	 30.08978	704.48602	 23.10	
  8.487	-123.723	 29.26751	  9.89934	 18.98122	  7.87898	 21.44018	 -0.24862	 30.09055	704.46899	 23.10	
  8.495	-135.039	 29.26151	  8.73794	 20.09296	  8.77864	 20.54105	 -0.22425	 30.07888	704.47803	 23.10	
  8.494	-146.194	 29.27285	  7.83944	 21.12322	  9.95699	 19.34261	 -0.19424	 30.08989	704.35999	 23.10	
  8.502	-157.493	 29.28026	  7.16845	 21.92644	 11.29008	 17.74114	 -0.18621	 30.09017	704.58002	 23.10	
  8.491	-168.704	 29.26495	  6.83851	 22.35625	 12.68605	 16.23238	 -0.20659	 30.05867	704.51099	 23.10	
  8.500	180.000	 29.28188	  6.71608	 22.51832	 14.39707	 14.60310	 -0.20416	 30.07777	704.31799	 23.10	
 10.200	180.000	 28.77294	  4.87856	 23.69663	 13.83583	 13.96520	 -0.43927	 30.07049	704.45898	 23.10	
 10.191	-170.497	 28.78356	  4.96483	 23.58826	 12.23461	 15.74212	 -0.44295	 30.09527	704.49200	 23.10	
 10.210	-161.034	 28.76614	  5.23505	 23.22309	 10.79434	 17.33547	 -0.43941	 30.08405	704.64899	 23.10	
 10.194	-151.526	 28.76940	  5.70062	 22.54449	  9.40272	 18.97759	 -0.43712	 30.08186	704.49500	 23.10	
 10.190	-142.105	 28.74468	  6.47713	 21.62879	  8.12079	 20.30299	 -0.43264	 30.06991	704.37201	 23.10	
 10.215	-132.646	 28.75097	  7.43752	 20.57826	  6.98847	 21.46885	 -0.43529	 30.07507	704.55200	 23.10	
 10.203	-123.092	 28.77542	  8.64126	 19.34155	  6.09333	 22.44673	 -0.47537	 30.10649	704.49799	 23.00	
 10.192	-113.678	 28.72521	  9.97050	 17.80442	  5.42168	 23.18255	 -0.52206	 30.05424	704.42999	 23.00	
 10.208	-104.249	 28.73944	 11.37300	 16.30449	  4.94220	 23.74856	 -0.58146	 30.08578	704.35699	 23.00	
 10.210	-94.801	 28.74085	 12.79007	 14.65946	  4.72057	 24.02204	 -0.62106	 30.08531	704.50098	 23.10	
 10.210	-85.199	 28.72886	 14.52899	 12.87056	  4.74433	 24.00994	 -0.64964	 30.07075	704.38800	 23.10	
 10.208	-75.751	 28.71787	 16.23170	 11.39166	  4.94438	 23.72947	 -0.65352	 30.07190	704.49298	 23.00	
 10.192	-66.322	 28.77415	 17.82558	 10.02508	  5.43209	 23.22922	 -0.61726	 30.12766	704.52899	 23.00	
 10.203	-56.908	 28.72924	 19.33784	  8.68688	  6.08904	 22.43176	 -0.61677	 30.07734	704.45502	 23.00	
 10.215	-47.354	 28.73239	 20.65412	  7.46648	  6.98361	 21.41358	 -0.57613	 30.09776	704.54199	 23.00	
 10.190	-37.895	 28.73771	 21.66692	  6.42626	  8.09755	 20.27437	 -0.53867	 30.10470	704.61798	 23.00	
 10.194	-28.474	 28.72122	 22.58073	  5.65524	  9.35356	 18.99104	 -0.52834	 30.08675	704.66699	 23.00	
 10.210	-18.966	 28.74256	 23.29217	  5.08598	 10.74046	 17.42364	 -0.52480	 30.10393	704.48297	 23.00	
 10.191	 -9.503	 28.69810	 23.65849	  4.75461	 12.10893	 15.80209	 -0.52553	 30.06227	704.40002	 23.00	
 10.200	  0.000	 28.71574	 23.84426	  4.60862	 13.79675	 13.96895	 -0.52018	 30.09408	704.51099	 23.00	
 10.191	  9.503	 28.67630	 23.70457	  4.69256	 15.52774	 12.44552	 -0.52121	 30.05267	704.50098	 23.00	
 10.210	 18.966	 28.69711	 23.36961	  5.00159	 17.08835	 11.00949	 -0.50451	 30.09645	704.45898	 23.00	
 10.194	 28.474	 28.66787	 22.70264	  5.54739	 18.62295	  9.66896	 -0.46626	 30.06154	704.48700	 23.00	
 10.190	 37.895	 28.65674	 21.80546	  6.28624	 19.95903	  8.41430	 -0.41724	 30.05046	704.47498	 23.00	
 10.215	 47.354	 28.66987	 20.82289	  7.22290	 21.17012	  7.24699	 -0.37374	 30.06827	704.43597	 23.00	
 10.203	 56.908	 28.67463	 19.56920	  8.39526	 22.09753	  6.34338	 -0.35627	 30.06766	704.43903	 23.00	
 10.192	 66.322	 28.68226	 18.03822	  9.68892	 22.89503	  5.87802	 -0.35355	 30.05931	704.55402	 23.00	
 10.208	 75.751	 28.72633	 16.50662	 11.08001	 23.46747	  5.44491	 -0.38914	 30.09195	704.42200	 23.00	
 10.210	 85.199	 28.72018	 14.81547	 12.56614	 23.71043	  5.25903	 -0.43233	 30.06176	704.33197	 23.00	
 10.210	 94.801	 28.75472	 13.12347	 14.27870	 23.73295	  5.27663	 -0.47877	 30.07522	704.40302	 23.00	
 10.208	104.249	 28.74338	 11.61652	 15.96799	 23.46574	  5.47229	 -0.48822	 30.05217	704.55499	 23.00	
 10.192	113.678	 28.81281	 10.26905	 17.55211	 22.99193	  5.92394	 -0.47208	 30.09872	704.41602	 23.00	
 10.203	123.092	 28.81290	  8.91492	 19.09068	 22.21750	  6.52930	 -0.44753	 30.08902	704.53101	 23.00	
 10.215	132.646	 28.77704	  7.64622	 20.38258	 21.17558	  7.18921	 -0.43379	 30.06801	704.38501	 23.00	
 10.190	142.105	 28.81157	  6.64903	 21.48270	 20.11567	  8.36214	 -0.40069	 30.08422	704.47803	 23.00	
 10.194	151.526	 28.81257	  5.85286	 22.42795	 18.76947	  9.63285	 -0.39731	 30.08387	704.45300	 23.00	
 10.210	161.034	 28.79391	  5.26760	 23.11812	 17.19265	 10.96489	 -0.39517	 30.06651	704.39301	 23.00	
 10.191	170.497	 28.79413	  4.93537	 23.53012	 15.63832	 12.41639	 -0.42053	 30.06533	704.48999	 23.00	
 11.899	171.783	 28.17786	  3.31128	 24.72461	 15.07637	 11.85725	 -0.66239	 30.08096	704.53101	 23.00	
 11.890	163.610	 28.17540	  3.60929	 24.30907	 16.69925	 10.40658	 -0.63537	 30.06392	704.47803	 23.00	
 11.889	155.445	 28.19850	  4.08306	 23.68076	 18.20771	  9.00680	 -0.63077	 30.07576	704.40002	 23.00	
 11.909	147.299	 28.16723	  4.65445	 22.85084	 19.72973	  7.61810	 -0.62822	 30.05694	704.41901	 23.00	
 11.902	139.148	 28.17813	  5.43487	 21.83785	 21.02754	  6.56726	 -0.63366	 30.07083	704.34100	 23.00	
 11.894	130.867	 28.19602	  6.35906	 20.59008	 22.10451	  5.70428	 -0.68070	 30.07524	704.45300	 23.00	
 11.897	122.732	 28.19428	  7.61637	 19.29140	 23.10115	  4.97611	 -0.72733	 30.07750	704.47803	 23.00	
 11.903	114.597	 28.15277	  8.95106	 17.76627	 23.86492	  4.25313	 -0.75989	 30.05487	704.54602	 23.00	
 11.893	106.346	 28.15864	 10.43066	 16.21529	 24.45596	  3.76875	 -0.77574	 30.07935	704.36603	 23.00	
 11.892	 98.155	 28.14746	 11.88069	 14.50451	 24.79204	  3.48043	 -0.76432	 30.07316	704.51501	 23.00	
 11.900	 90.000	 28.12274	 13.43141	 12.82167	 24.88359	  3.39602	 -0.74028	 30.06469	704.48999	 23.00	
 11.892	 81.845	 28.12138	 15.15730	 11.30111	 24.75553	  3.53557	 -0.68034	 30.07831	704.45300	 23.00	
 11.893	 73.654	 28.07634	 16.82141	  9.82326	 24.35185	  3.79402	 -0.62017	 30.04998	704.29498	 23.00	
 11.903	 65.403	 28.06032	 18.36023	  8.37749	 23.75930	  4.22865	 -0.59909	 30.06136	704.38000	 23.00	
 11.897	 57.268	 28.03704	 19.84879	  7.04571	 22.96547	  4.90296	 -0.58234	 30.06554	704.34900	 23.00	
 11.894	 49.133	 28.07622	 21.08720	  5.92337	 21.96354	  5.72135	 -0.60213	 30.09368	704.37402	 23.00	
 11.902	 40.852	 28.06179	 22.25199	  4.87994	 20.86243	  6.69738	 -0.65950	 30.08630	704.32898	 23.00	
 11.909	 32.701	 28.03722	 23.20750	  4.07268	 19.58579	  7.72555	 -0.72355	 30.07053	704.43402	 23.00	
 11.889	 24.555	 28.04369	 23.95817	  3.59133	 18.03545	  9.05608	 -0.76072	 30.06714	704.41400	 23.00	
 11.890	 16.390	 28.04924	 24.51355	  3.20356	 16.54170	 10.46356	 -0.77601	 30.06332	704.20300	 23.00	
 11.899	  8.217	 28.05464	 24.85777	  2.97116	 14.93267	 11.93110	 -0.77511	 30.07218	704.41302	 23.00	
 11.900	  0.000	 28.06560	 24.96845	  2.87129	 13.07469	 13.49521	 -0.78344	 30.07114	704.35999	 23.00	
 11.899	 -8.217	 28.04459	 24.79087	  2.99922	 11.58115	 15.15703	 -0.78129	 30.03241	704.41602	 23.00	
 11.890	-16.390	 28.06460	 24.41085	  3.29817	 10.16733	 16.85719	 -0.77167	 30.04657	704.45801	 23.00	
 11.889	-24.555	 28.07411	 23.81279	  3.72381	  8.73829	 18.39758	 -0.80081	 30.06778	704.39600	 23.00	
 11.909	-32.701	 28.08531	 23.04615	  4.19648	  7.40845	 19.83175	 -0.79236	 30.07754	704.43903	 23.00	
 11.902	-40.852	 28.07572	 22.00070	  5.08224	  6.21456	 21.09913	 -0.79606	 30.05526	704.46698	 23.00	
 11.894	-49.133	 28.09260	 20.88872	  6.18348	  5.13912	 22.32175	 -0.81951	 30.06377	704.32001	 23.00	
 11.897	-57.268	 28.05827	 19.56142	  7.39949	  4.27495	 23.27307	 -0.85125	 30.02584	704.39697	 23.00	
 11.903	-65.403	 28.06295	 18.01123	  8.69744	  3.81042	 24.07717	 -0.86831	 30.05046	704.38300	 23.00	
 11.893	-73.654	 28.09061	 16.46187	 10.14854	  3.46761	 24.67502	 -0.87341	 30.06744	704.42102	 23.00	
 11.892	-81.845	 28.08442	 14.74210	 11.63291	  3.22258	 25.01993	 -0.87166	 30.04988	704.31799	 23.00	
 11.900	-90.000	 28.09955	 13.03154	 13.10782	  3.12681	 25.15663	 -0.86548	 30.06821	704.32098	 23.00	
 11.892	-98.155	 28.08495	 11.53305	 14.87894	  3.21780	 25.01233	 -0.86450	 30.03665	704.35797	 23.00	
 11.893	-106.346	 28.11468	 10.06683	 16.56341	  3.48099	 24.68959	 -0.83267	 30.07503	704.28601	 23.00	
 11.903	-114.597	 28.09109	  8.62119	 18.03905	  3.85811	 24.07611	 -0.77414	 30.05589	704.28900	 23.00	
 11.897	-122.732	 28.09018	  7.29459	 19.55585	  4.44168	 23.25494	 -0.70178	 30.04338	704.32397	 23.00	
 11.894	-130.867	 28.11271	  6.13370	 20.83611	  5.20054	 22.25254	 -0.66255	 30.04146	704.24701	 23.00	
 11.902	-139.148	 28.12999	  5.07246	 22.03999	  6.28709	 21.10076	 -0.65860	 30.05944	704.41400	 23.00	
 11.909	-147.299	 28.10163	  4.41538	 23.01861	  7.44591	 19.83890	 -0.68182	 30.04998	704.25500	 23.00	
 11.889	-155.445	 28.11659	  3.91952	 23.78489	  8.82287	 18.38785	 -0.69602	 30.04450	704.23102	 23.00	
 11.890	-163.610	 28.15309	  3.52194	 24.38220	 10.28708	 16.81691	 -0.70137	 30.06915	704.38000	 23.00	
 11.899	-171.783	 28.12389	  3.27099	 24.70879	 11.73458	 15.11502	 -0.70099	 30.03247	704.35101	 23.00	
 11.900	180.000	 28.12822	  3.20350	 24.82249	 13.20271	 13.38206	 -0.69560	 30.02898	704.28101	 23.00	
 13.600	180.000	 27.42369	  1.38350	 25.87664	 12.72186	 12.83359	 -0.94492	 30.04642	704.35199	 23.00	
 13.608	-172.853	 27.39684	  1.43631	 25.77230	 11.21111	 14.34244	 -0.94705	 30.03062	704.32098	 23.00	
 13.611	-165.583	 27.39458	  1.62187	 25.47609	  9.69369	 16.14747	 -0.94177	 30.04406	704.32098	 23.00	
 13.601	-158.353	 27.36824	  1.98781	 24.93590	  8.18704	 17.73681	 -0.95192	 30.02173	704.32898	 23.00	
 13.609	-151.210	 27.38735	  2.50467	 24.26675	  6.80362	 19.27847	 -0.93600	 30.04910	704.31799	 23.00	
 13.611	-143.999	 27.36477	  3.18263	 23.34376	  5.50313	 20.63358	 -0.90108	 30.02462	704.29303	 23.00	
 13.601	-136.825	 27.34833	  3.94476	 22.25446	  4.54575	 21.85649	 -0.85612	 30.02419	704.27802	 23.00	
 13.596	-129.640	 27.39802	  4.95331	 21.01245	  3.64504	 23.05373	 -0.86267	 30.07326	704.35199	 23.00	
