FileType=PCF
NHL=14
Date=08/24/17	09:46:52
Facility=APL
Serial=16328-2
Customer=NASA
NP=6
Mach=0.150000
Calibration=1:1
CalPts=490
TstPts=95
PortNumbering=AP Standard
Units=Torr C m/s kg/m^3 deg mm 
Theta[deg]	Phi[deg]	P1[Torr]	P2[Torr]	P3[Torr]	P4[Torr]	P5[Torr]	P6[Torr]	Pt[Torr]	Ps[Abs,Torr]	Ts[C]	
  0.000	  0.000	 11.06953	  5.63209	  5.58101	  5.61145	  5.75476	  0.09140	 11.06105	704.10699	 23.50	
  1.691	128.401	 11.07395	  5.28082	  5.91610	  6.03722	  5.30965	  0.08911	 11.06541	703.92603	 23.50	
  1.692	 77.194	 11.04364	  5.73894	  5.41848	  6.09634	  5.20593	  0.08977	 11.03371	704.14398	 23.50	
  1.699	 26.182	 11.03977	  6.11659	  5.05253	  5.83148	  5.48074	  0.08421	 11.03188	704.11200	 23.50	
  1.699	-26.182	 11.04424	  6.10825	  5.06230	  5.34037	  5.97096	  0.08488	 11.03793	704.04199	 23.50	
  1.692	-77.194	 11.06684	  5.71845	  5.45262	  5.06468	  6.27039	  0.07941	 11.05821	703.98297	 23.50	
  1.691	-128.401	 11.05840	  5.25759	  5.91919	  5.16371	  6.16794	  0.08182	 11.04650	703.96802	 23.50	
  1.700	180.000	 11.08182	  5.06469	  6.14381	  5.60505	  5.74933	  0.08856	 11.07012	704.04999	 23.50	
  3.400	180.000	 11.05737	  4.46687	  6.67641	  5.52354	  5.69411	  0.04394	 11.06365	704.05902	 23.50	
  3.388	-152.325	 11.03857	  4.56261	  6.53270	  5.01809	  6.19771	  0.04159	 11.04256	704.03900	 23.50	
  3.397	-124.529	 11.05574	  4.88968	  6.18026	  4.64369	  6.62520	  0.04438	 11.05966	704.07800	 23.50	
  3.399	-96.763	 11.03361	  5.38124	  5.62316	  4.44167	  6.82415	  0.03429	 11.03924	704.09900	 23.50	
  3.394	-69.283	 11.03834	  5.92149	  5.10132	  4.50285	  6.75784	  0.03338	 11.04545	703.83698	 23.50	
  3.400	-41.398	 11.03094	  6.41027	  4.66193	  4.79411	  6.42693	  0.04474	 11.04474	703.98901	 23.50	
  3.401	-14.021	 11.04337	  6.68572	  4.43688	  5.24748	  5.95325	  0.04623	 11.05553	704.02698	 23.50	
  3.401	 14.021	 11.04739	  6.69928	  4.43735	  5.80414	  5.40181	  0.05357	 11.05704	703.90601	 23.50	
  3.400	 41.398	 11.03957	  6.43259	  4.66893	  6.29026	  4.94760	  0.05497	 11.04767	704.07599	 23.50	
  3.394	 69.283	 11.03936	  5.98739	  5.06453	  6.59756	  4.67697	  0.05285	 11.04822	704.01599	 23.50	
  3.399	 96.763	 11.03184	  5.43369	  5.59920	  6.67696	  4.60055	  0.07007	 11.04085	703.95801	 23.50	
  3.397	124.529	 11.04994	  4.93598	  6.14844	  6.48176	  4.78750	  0.05396	 11.05691	703.97198	 23.50	
  3.388	152.325	 11.04492	  4.59524	  6.53213	  6.07104	  5.16548	  0.06652	 11.04906	703.94702	 23.50	
  5.099	161.165	 10.99998	  3.89288	  7.11871	  6.02564	  5.02194	  0.00461	 11.05489	703.91302	 23.50	
  5.109	142.013	 11.00892	  4.15746	  6.81867	  6.55684	  4.54179	  0.00901	 11.06479	703.89600	 23.50	
  5.095	123.033	 10.98804	  4.55681	  6.34690	  6.94058	  4.18952	  0.01141	 11.04297	704.10400	 23.50	
  5.105	104.191	 10.98985	  5.06353	  5.80355	  7.18542	  3.98756	  0.01483	 11.05054	704.03601	 23.50	
  5.093	 85.207	 10.99212	  5.64031	  5.22997	  7.23009	  3.95398	  0.01626	 11.05366	704.10400	 23.50	
  5.104	 66.290	 10.98180	  6.19910	  4.69509	  7.07441	  4.07466	  0.01864	 11.04589	703.99103	 23.50	
  5.094	 47.331	 11.00861	  6.71093	  4.25903	  6.76053	  4.36542	  0.01422	 11.07293	704.09198	 23.50	
  5.089	 28.397	 10.99932	  7.07117	  3.93652	  6.28731	  4.77682	  0.00769	 11.06216	704.06500	 23.50	
  5.096	  9.576	 10.98479	  7.25483	  3.76438	  5.72717	  5.29243	  0.00074	 11.05360	703.88702	 23.50	
  5.096	 -9.576	 10.99310	  7.25017	  3.77009	  5.14332	  5.88308	 -0.00377	 11.06277	704.01898	 23.50	
  5.089	-28.397	 10.98838	  7.03574	  3.94624	  4.62562	  6.42501	 -0.00939	 11.05429	704.09802	 23.50	
  5.094	-47.331	 10.98540	  6.65426	  4.26919	  4.19588	  6.90138	 -0.01544	 11.05213	704.19897	 23.50	
  5.104	-66.290	 10.99908	  6.15429	  4.72749	  3.90167	  7.25234	 -0.01946	 11.06541	704.06702	 23.50	
  5.093	-85.207	 10.97742	  5.56456	  5.26415	  3.76679	  7.38594	 -0.02264	 11.04061	704.04999	 23.50	
  5.105	-104.191	 10.98477	  4.99382	  5.85019	  3.80992	  7.34219	 -0.01518	 11.04773	704.15698	 23.50	
  5.095	-123.033	 10.98398	  4.49462	  6.39056	  4.02859	  7.08808	 -0.01032	 11.04314	704.12097	 23.50	
  5.109	-142.013	 10.99108	  4.10088	  6.84236	  4.39979	  6.67972	 -0.00262	 11.05077	703.99402	 23.50	
  5.099	-161.165	 10.98801	  3.86440	  7.12687	  4.88672	  6.14987	 -0.00085	 11.04412	704.01898	 23.50	
  5.100	180.000	 10.99660	  3.79627	  7.22628	  5.44656	  5.58422	  0.00795	 11.05151	704.03101	 23.50	
  6.800	180.000	 10.89633	  3.12788	  7.75105	  5.34345	  5.47831	 -0.05674	 11.04495	704.06500	 23.50	
  6.796	-166.229	 10.91213	  3.17542	  7.69757	  4.80197	  6.04545	 -0.06706	 11.06496	703.98901	 23.50	
  6.808	-152.311	 10.90464	  3.34079	  7.48453	  4.28628	  6.58664	 -0.07199	 11.05922	704.10602	 23.50	
  6.795	-138.383	 10.90773	  3.63175	  7.14233	  3.83702	  7.08478	 -0.06940	 11.06376	704.08099	 23.50	
  6.792	-124.591	 10.89932	  4.02005	  6.69380	  3.48168	  7.48100	 -0.07526	 11.05809	704.08197	 23.50	
  6.787	-110.754	 10.88750	  4.49224	  6.16683	  3.24098	  7.74920	 -0.09205	 11.04447	704.06702	 23.50	
  6.800	-96.985	 10.90879	  5.03543	  5.62145	  3.12406	  7.91134	 -0.09563	 11.07497	704.09302	 23.50	
  6.800	-83.015	 10.89145	  5.60638	  5.03779	  3.11768	  7.90098	 -0.10102	 11.05456	703.89801	 23.50	
  6.787	-69.246	 10.92338	  6.18570	  4.51702	  3.24798	  7.78134	 -0.10425	 11.08904	704.02002	 23.50	
  6.792	-55.409	 10.89602	  6.69949	  4.02422	  3.47468	  7.48680	 -0.09765	 11.06293	704.02698	 23.50	
  6.795	-41.617	 10.88357	  7.14553	  3.61913	  3.81744	  7.08002	 -0.08727	 11.05158	704.05298	 23.50	
  6.808	-27.689	 10.89846	  7.51202	  3.31799	  4.26475	  6.59477	 -0.07880	 11.06696	704.01898	 23.50	
  6.796	-13.771	 10.89568	  7.73119	  3.13659	  4.77443	  6.04777	 -0.07710	 11.06561	704.07300	 23.50	
  6.800	  0.000	 10.87890	  7.80250	  3.06680	  5.31657	  5.47685	 -0.07086	 11.04676	704.16803	 23.50	
  6.796	 13.771	 10.90427	  7.75495	  3.12932	  5.90093	  4.93006	 -0.06372	 11.07426	704.11499	 23.50	
  6.808	 27.689	 10.89341	  7.54757	  3.29339	  6.44151	  4.41553	 -0.06247	 11.06261	704.16901	 23.50	
  6.795	 41.617	 10.88863	  7.20015	  3.58936	  6.92038	  3.98598	 -0.05279	 11.05393	704.09601	 23.50	
  6.792	 55.409	 10.88715	  6.75864	  3.97644	  7.31363	  3.64936	 -0.04293	 11.05086	704.10699	 23.50	
  6.787	 69.246	 10.90040	  6.24780	  4.45095	  7.60419	  3.41819	 -0.04770	 11.06410	704.17200	 23.50	
  6.800	 83.015	 10.88722	  5.68716	  4.96706	  7.74705	  3.28877	 -0.05334	 11.05248	704.06201	 23.50	
  6.800	 96.985	 10.88814	  5.10991	  5.53744	  7.75180	  3.28231	 -0.05043	 11.04198	704.14600	 23.50	
  6.787	110.754	 10.90362	  4.58226	  6.10382	  7.61653	  3.40742	 -0.06343	 11.05708	704.08398	 23.50	
  6.792	124.591	 10.91758	  4.10616	  6.63786	  7.35004	  3.64334	 -0.05810	 11.06724	704.12598	 23.50	
  6.795	138.383	 10.92185	  3.70618	  7.09654	  6.95735	  3.98788	 -0.05243	 11.06585	704.00800	 23.50	
  6.808	152.311	 10.90711	  3.38992	  7.44862	  6.46640	  4.41253	 -0.05757	 11.05321	704.06097	 23.50	
  6.796	166.229	 10.90021	  3.19927	  7.67063	  5.91888	  4.91910	 -0.06409	 11.05009	704.19897	 23.50	
  8.491	168.704	 10.78284	  2.51347	  8.18995	  5.81827	  4.77455	 -0.14479	 11.06728	704.14099	 23.50	
  8.502	157.493	 10.76465	  2.65954	  7.98896	  6.36869	  4.23913	 -0.14145	 11.04979	704.12402	 23.50	
  8.494	146.194	 10.79320	  2.92698	  7.69992	  6.91223	  3.77489	 -0.12964	 11.06940	704.19098	 23.50	
  8.495	135.039	 10.78409	  3.26678	  7.29345	  7.37481	  3.36091	 -0.12970	 11.06336	704.16498	 23.50	
  8.487	123.723	 10.77089	  3.68797	  6.80004	  7.75324	  3.02898	 -0.14535	 11.05466	704.16302	 23.50	
  8.492	112.575	 10.77462	  4.17271	  6.27005	  8.04221	  2.79148	 -0.15293	 11.06005	704.05798	 23.50	
  8.510	101.220	 10.77456	  4.71362	  5.69541	  8.22232	  2.64124	 -0.14466	 11.06821	704.21100	 23.50	
  8.500	 90.000	 10.76407	  5.28322	  5.11054	  8.26781	  2.60040	 -0.13602	 11.06204	704.09198	 23.50	
  8.510	 78.780	 10.75933	  5.86627	  4.54252	  8.20528	  2.64651	 -0.13273	 11.06028	704.05402	 23.50	
  8.492	 67.425	 10.75065	  6.43012	  4.00755	  8.01195	  2.79788	 -0.12605	 11.06165	704.05298	 23.50	
  8.487	 56.277	 10.76162	  6.95918	  3.54288	  7.73387	  3.03437	 -0.11879	 11.07000	704.08099	 23.50	
  8.495	 44.961	 10.74182	  7.41828	  3.12060	  7.33049	  3.35465	 -0.12580	 11.05454	704.13800	 23.50	
  8.494	 33.806	 10.72838	  7.78663	  2.79741	  6.85103	  3.76147	 -0.14021	 11.03949	704.16803	 23.50	
  8.502	 22.507	 10.74155	  8.08476	  2.55767	  6.33003	  4.24338	 -0.14956	 11.06053	704.26703	 23.50	
  8.491	 11.296	 10.75406	  8.25897	  2.42419	  5.77271	  4.77796	 -0.15065	 11.06851	704.09003	 23.50	
  8.500	  0.000	 10.75211	  8.31047	  2.37844	  5.18430	  5.35292	 -0.15841	 11.06509	704.15698	 23.50	
  8.491	-11.296	 10.75180	  8.23835	  2.43525	  4.61594	  5.93186	 -0.16205	 11.06422	704.21399	 23.50	
  8.502	-22.507	 10.72482	  8.03270	  2.57934	  4.07558	  6.47792	 -0.16253	 11.03207	704.18298	 23.50	
  8.494	-33.806	 10.75860	  7.75404	  2.84274	  3.59976	  7.03512	 -0.16446	 11.06973	704.24701	 23.50	
  8.495	-44.961	 10.74839	  7.35217	  3.17549	  3.18193	  7.49889	 -0.17949	 11.06016	704.31403	 23.50	
  8.487	-56.277	 10.75712	  6.87436	  3.60618	  2.85918	  7.88670	 -0.19360	 11.06351	704.25598	 23.50	
  8.492	-67.425	 10.76340	  6.34308	  4.09009	  2.62128	  8.17700	 -0.20185	 11.06981	704.17499	 23.50	
  8.510	-78.780	 10.72750	  5.74430	  4.61768	  2.45656	  8.33584	 -0.20016	 11.03279	704.17102	 23.50	
  8.500	-90.000	 10.73798	  5.16678	  5.19457	  2.41803	  8.39605	 -0.19267	 11.04245	704.11798	 23.50	
  8.510	-101.220	 10.75418	  4.60051	  5.78398	  2.46555	  8.34832	 -0.18833	 11.05555	704.11798	 23.50	
  8.492	-112.575	 10.75270	  4.05947	  6.35315	  2.62496	  8.15819	 -0.17579	 11.04929	704.16803	 23.50	
  8.487	-123.723	 10.74144	  3.57992	  6.86923	  2.86784	  7.86049	 -0.15570	 11.03580	704.15399	 23.50	
  8.495	-135.039	 10.75992	  3.16672	  7.35237	  3.19941	  7.48969	 -0.14337	 11.05576	703.96301	 23.50	
  8.494	-146.194	 10.75644	  2.84894	  7.72978	  3.62109	  7.01931	 -0.15035	 11.04917	704.15399	 23.50	
  8.502	-157.493	 10.76492	  2.61444	  8.02381	  4.11816	  6.48447	 -0.15454	 11.05788	704.14600	 23.50	
  8.491	-168.704	 10.74058	  2.47922	  8.17619	  4.64360	  5.90796	 -0.14179	 11.02914	704.06201	 23.50	
  8.500	180.000	 10.77983	  2.44734	  8.26076	  5.22816	  5.35048	 -0.13626	 11.06746	704.05798	 23.50	
 10.200	180.000	 10.58785	  1.76439	  8.71378	  5.06627	  5.18196	 -0.22482	 11.05790	704.07300	 23.50	
 10.191	-170.497	 10.57438	  1.78924	  8.66139	  4.48568	  5.75655	 -0.22907	 11.04413	704.12903	 23.50	
 10.210	-161.034	 10.58733	  1.89599	  8.52649	  3.94018	  6.33900	 -0.24409	 11.05904	704.16803	 23.50	
 10.194	-151.526	 10.59007	  2.09006	  8.27689	  3.42255	  6.90593	 -0.24307	 11.06979	704.07300	 23.50	
 10.190	-142.105	 10.56693	  2.35587	  7.92635	  2.95681	  7.40058	 -0.23302	 11.04387	703.99402	 23.50	
 10.215	-132.646	 10.58615	  2.70620	  7.53069	  2.56557	  7.86640	 -0.22538	 11.06539	704.19397	 23.50	
 10.203	-123.092	 10.56398	  3.12338	  7.02865	  2.23101	  8.23572	 -0.23848	 11.04374	704.05298	 23.50	
 10.192	-113.678	 10.55273	  3.60299	  6.48592	  1.98252	  8.52216	 -0.26217	 11.03324	704.12402	 23.50	
 10.208	-104.249	 10.57885	  4.13940	  5.93609	  1.81502	  8.75516	 -0.28264	 11.06703	704.09802	 23.50	
 10.210	-94.801	 10.56830	  4.70136	  5.34560	  1.72621	  8.85437	 -0.29018	 11.05920	704.19897	 23.50	
 10.210	-85.199	 10.55067	  5.29194	  4.74120	  1.72111	  8.84581	 -0.29784	 11.04471	704.13000	 23.50	
 10.208	-75.751	 10.57270	  5.89366	  4.18470	  1.80678	  8.76524	 -0.30465	 11.06917	704.16498	 23.50	
 10.192	-66.322	 10.54968	  6.45478	  3.64757	  1.97068	  8.53975	 -0.29722	 11.04141	704.09198	 23.50	
 10.203	-56.908	 10.55468	  7.00551	  3.15795	  2.21510	  8.24770	 -0.28945	 11.05171	704.14099	 23.50	
 10.215	-47.354	 10.54948	  7.50180	  2.71973	  2.53725	  7.86155	 -0.27104	 11.04511	704.18500	 23.60	
 10.190	-37.895	 10.54631	  7.92015	  2.36390	  2.92634	  7.41033	 -0.25555	 11.04061	704.06799	 23.50	
 10.194	-28.474	 10.57356	  8.28951	  2.08128	  3.38476	  6.92219	 -0.25430	 11.07378	704.10400	 23.50	
 10.210	-18.966	 10.54830	  8.53555	  1.85731	  3.88786	  6.34733	 -0.25167	 11.05209	704.11298	 23.50	
 10.191	 -9.503	 10.54890	  8.69043	  1.73531	  4.43391	  5.77422	 -0.25169	 11.04550	704.07300	 23.50	
 10.200	  0.000	 10.54117	  8.74832	  1.68439	  5.00394	  5.18745	 -0.25063	 11.04551	704.01398	 23.60	
 10.191	  9.503	 10.55743	  8.72245	  1.71953	  5.60480	  4.61110	 -0.24814	 11.06261	704.20300	 23.60	
 10.210	 18.966	 10.55587	  8.58254	  1.82855	  6.18292	  4.06054	 -0.24997	 11.05979	704.13397	 23.60	
 10.194	 28.474	 10.53893	  8.32241	  2.03445	  6.72592	  3.55531	 -0.24379	 11.04149	704.12598	 23.60	
 10.190	 37.895	 10.56487	  8.01260	  2.30973	  7.26042	  3.10838	 -0.22537	 11.06983	704.07599	 23.60	
 10.215	 47.354	 10.55490	  7.59555	  2.64651	  7.71311	  2.70893	 -0.20630	 11.06039	703.96802	 23.60	
 10.203	 56.908	 10.56056	  7.11485	  3.07172	  8.09530	  2.40067	 -0.19868	 11.05877	704.16498	 23.60	
 10.192	 66.322	 10.53838	  6.56342	  3.54482	  8.36585	  2.16418	 -0.20569	 11.03025	704.12097	 23.50	
 10.208	 75.751	 10.57098	  6.01865	  4.07291	  8.60026	  2.00028	 -0.21890	 11.05905	704.05402	 23.60	
 10.210	 85.199	 10.56216	  5.42746	  4.62724	  8.70131	  1.91012	 -0.22826	 11.04166	704.04700	 23.60	
 10.210	 94.801	 10.56702	  4.83066	  5.22209	  8.70594	  1.90883	 -0.23484	 11.04218	704.15198	 23.50	
 10.208	104.249	 10.60064	  4.27773	  5.82628	  8.63142	  1.99821	 -0.24706	 11.07089	704.04199	 23.60	
 10.192	113.678	 10.58823	  3.74425	  6.38819	  8.41609	  2.16327	 -0.24501	 11.05289	704.17200	 23.50	
 10.203	123.092	 10.60957	  3.25624	  6.94847	  8.14722	  2.39887	 -0.24228	 11.07302	704.12097	 23.50	
 10.215	132.646	 10.58847	  2.80933	  7.43510	  7.76014	  2.70122	 -0.22335	 11.04997	704.14801	 23.50	
 10.190	142.105	 10.59729	  2.45000	  7.87121	  7.30915	  3.09916	 -0.21071	 11.05838	704.25500	 23.50	
 10.194	151.526	 10.60440	  2.16174	  8.22926	  6.80095	  3.55386	 -0.21599	 11.06432	704.19397	 23.50	
 10.210	161.034	 10.60459	  1.94462	  8.50046	  6.24864	  4.05632	 -0.22511	 11.06769	704.13202	 23.50	
 10.191	170.497	 10.58853	  1.81950	  8.64701	  5.66482	  4.59719	 -0.23053	 11.05150	704.17902	 23.50	
 11.899	171.783	 10.36918	  1.12311	  9.08462	  5.48733	  4.40302	 -0.32299	 11.05573	704.01099	 23.50	
 11.890	163.610	 10.35678	  1.23750	  8.92706	  6.05760	  3.85034	 -0.31024	 11.04135	703.95099	 23.50	
 11.889	155.445	 10.39922	  1.42470	  8.72872	  6.64798	  3.34849	 -0.30576	 11.08274	704.05798	 23.50	
 11.909	147.299	 10.37239	  1.65945	  8.39730	  7.17650	  2.85438	 -0.29717	 11.05633	704.07599	 23.50	
 11.902	139.148	 10.35512	  1.97643	  7.99347	  7.65495	  2.42782	 -0.29996	 11.03492	704.10602	 23.50	
 11.894	130.867	 10.38321	  2.36986	  7.55523	  8.10791	  2.07329	 -0.32213	 11.06349	704.08398	 23.50	
 11.897	122.732	 10.37584	  2.79883	  7.04716	  8.47536	  1.76412	 -0.33884	 11.06065	704.03003	 23.50	
 11.903	114.597	 10.34957	  3.27455	  6.48554	  8.75648	  1.51362	 -0.35143	 11.03582	704.20801	 23.50	
 11.893	106.346	 10.35012	  3.81160	  5.90506	  8.97441	  1.34487	 -0.35312	 11.04040	704.08099	 23.50	
 11.892	 98.155	 10.35525	  4.37906	  5.31753	  9.10718	  1.24598	 -0.34314	 11.05652	704.04999	 23.50	
 11.900	 90.000	 10.33468	  4.94628	  4.72266	  9.13509	  1.20948	 -0.33507	 11.04029	704.06097	 23.50	
 11.892	 81.845	 10.34166	  5.54482	  4.14854	  9.09105	  1.25277	 -0.31620	 11.05140	704.05298	 23.50	
 11.893	 73.654	 10.33368	  6.12645	  3.59637	  8.95024	  1.35867	 -0.30456	 11.05252	704.05402	 23.50	
 11.903	 65.403	 10.33047	  6.69976	  3.07252	  8.72473	  1.53411	 -0.28722	 11.05260	704.07501	 23.50	
 11.897	 57.268	 10.32772	  7.23614	  2.60330	  8.42013	  1.77716	 -0.27975	 11.05693	703.90399	 23.50	
 11.894	 49.133	 10.31986	  7.71627	  2.18522	  8.03561	  2.08417	 -0.28089	 11.04441	703.95502	 23.50	
 11.902	 40.852	 10.31131	  8.15038	  1.81357	  7.59269	  2.43933	 -0.30145	 11.04665	704.14801	 23.50	
 11.909	 32.701	 10.31894	  8.52140	  1.51956	  7.10268	  2.86416	 -0.32587	 11.05545	704.10699	 23.50	
 11.889	 24.555	 10.32477	  8.81368	  1.29167	  6.55902	  3.35487	 -0.33952	 11.05404	704.14600	 23.50	
 11.890	 16.390	 10.29544	  8.99522	  1.12324	  5.97523	  3.86334	 -0.34578	 11.02715	704.09302	 23.60	
 11.899	  8.217	 10.29593	  9.11986	  1.02403	  5.39760	  4.40782	 -0.33788	 11.02633	704.00500	 23.60	
 11.900	  0.000	 10.31988	  9.17375	  1.00070	  4.81393	  5.00520	 -0.33663	 11.05219	704.14899	 23.60	
 11.899	 -8.217	 10.32973	  9.12832	  1.04042	  4.24187	  5.59653	 -0.33730	 11.05933	704.15198	 23.60	
 11.890	-16.390	 10.35578	  9.00764	  1.15887	  3.70184	  6.18965	 -0.33981	 11.08794	704.11200	 23.60	
 11.889	-24.555	 10.32742	  8.75834	  1.33265	  3.16489	  6.74620	 -0.33673	 11.05414	704.12903	 23.60	
 11.909	-32.701	 10.32351	  8.45169	  1.57603	  2.68724	  7.27785	 -0.33856	 11.05149	704.16803	 23.50	
 11.902	-40.852	 10.33133	  8.07472	  1.89376	  2.27111	  7.76456	 -0.34195	 11.05404	704.25598	 23.50	
 11.894	-49.133	 10.33313	  7.61586	  2.27717	  1.89505	  8.20776	 -0.35665	 11.05065	704.17200	 23.50	
 11.897	-57.268	 10.33426	  7.11555	  2.70776	  1.58520	  8.58505	 -0.37032	 11.05671	704.16101	 23.50	
 11.903	-65.403	 10.31551	  6.55663	  3.18679	  1.34102	  8.87413	 -0.38536	 11.04159	704.03699	 23.50	
 11.893	-73.654	 10.31340	  5.97158	  3.71866	  1.17947	  9.08306	 -0.38922	 11.03610	704.24799	 23.50	
 11.892	-81.845	 10.32680	  5.38725	  4.27883	  1.08346	  9.21705	 -0.39121	 11.04322	704.03003	 23.50	
 11.900	-90.000	 10.34369	  4.80292	  4.86655	  1.05082	  9.27252	 -0.38957	 11.06016	704.10901	 23.50	
 11.892	-98.155	 10.35627	  4.22615	  5.46097	  1.08961	  9.23036	 -0.38395	 11.06802	704.07300	 23.50	
 11.893	-106.346	 10.34109	  3.66128	  6.03781	  1.18944	  9.08696	 -0.36735	 11.04996	704.09900	 23.50	
 11.903	-114.597	 10.33192	  3.12580	  6.60948	  1.35426	  8.86213	 -0.34809	 11.04068	704.16302	 23.50	
 11.897	-122.732	 10.34497	  2.65632	  7.15109	  1.59928	  8.56838	 -0.32660	 11.04960	704.16803	 23.60	
 11.894	-130.867	 10.33026	  2.23504	  7.62863	  1.91629	  8.17772	 -0.31013	 11.02903	704.11200	 23.50	
 11.902	-139.148	 10.33895	  1.86932	  8.07855	  2.30183	  7.73583	 -0.31648	 11.03443	704.14099	 23.50	
 11.909	-147.299	 10.35421	  1.56981	  8.45944	  2.72899	  7.26206	 -0.32963	 11.05249	704.00299	 23.50	
 11.889	-155.445	 10.36022	  1.35699	  8.75151	  3.21702	  6.72638	 -0.33816	 11.05474	704.03699	 23.50	
 11.890	-163.610	 10.37238	  1.20093	  8.97309	  3.75516	  6.15927	 -0.33420	 11.06840	704.01398	 23.50	
 11.899	-171.783	 10.38359	  1.10525	  9.11563	  4.31508	  5.58360	 -0.32715	 11.07797	704.09802	 23.50	
 11.900	180.000	 10.35953	  1.07857	  9.13132	  4.88349	  4.98575	 -0.31842	 11.05210	704.07800	 23.50	
 13.600	180.000	 10.07821	  0.37889	  9.50010	  4.66446	  4.75633	 -0.41612	 11.03087	704.07800	 23.60	
 13.608	-172.853	 10.09370	  0.39282	  9.48707	  4.10082	  5.33971	 -0.42050	 11.05106	704.05798	 23.60	
 13.611	-165.583	 10.09743	  0.46850	  9.37834	  3.53456	  5.93090	 -0.42708	 11.06008	704.17102	 23.60	
 13.601	-158.353	 10.08662	  0.61405	  9.17716	  2.99210	  6.51083	 -0.42763	 11.04975	704.15997	 23.60	
 13.609	-151.210	 10.08944	  0.80808	  8.92470	  2.49748	  7.06285	 -0.42626	 11.05451	704.13397	 23.60	
 13.611	-143.999	 10.07781	  1.06430	  8.58294	  2.03822	  7.57500	 -0.40566	 11.04504	704.09302	 23.60	
 13.601	-136.825	 10.08787	  1.38486	  8.19324	  1.63251	  8.06227	 -0.38839	 11.05283	704.12598	 23.60	
 13.596	-129.640	 10.07936	  1.75565	  7.73174	  1.26775	  8.48982	 -0.38159	 11.04207	704.10101	 23.60	
