FileType=PCF
NHL=14
Date=03/12/19	12:49:31
Facility=APL
Serial=16071-11
Customer=NASA
NP=6
Mach=0.080000
Calibration=1:1
CalPts=490
TstPts=95
PortNumbering=AP Standard
Units=Torr C m/s kg/m^3 deg mm 
Theta[deg]	Phi[deg]	P1[Torr]	P2[Torr]	P3[Torr]	P4[Torr]	P5[Torr]	P6[Torr]	Pt[Torr]	Ps[Abs,Torr]	Ts[C]	
  0.000	  0.000	  3.15228	  1.38525	  1.37514	  1.37846	  1.35940	  0.06658	  3.14322	712.28998	 24.50	
  1.691	128.401	  3.15203	  1.28658	  1.44981	  1.47789	  1.24092	  0.05881	  3.14352	712.03998	 24.50	
  1.692	 77.194	  3.14885	  1.40045	  1.32394	  1.50155	  1.20834	  0.06576	  3.14071	712.40002	 24.50	
  1.699	 26.182	  3.14790	  1.50227	  1.22999	  1.42469	  1.27425	  0.06886	  3.14017	712.38000	 24.50	
  1.699	-26.182	  3.15190	  1.49860	  1.24083	  1.28882	  1.40932	  0.06328	  3.14353	712.33002	 24.50	
  1.692	-77.194	  3.15252	  1.39342	  1.34433	  1.22524	  1.49742	  0.06219	  3.14293	711.59998	 24.50	
  1.691	-128.401	  3.15034	  1.29516	  1.45937	  1.25983	  1.46740	  0.05802	  3.14157	712.26001	 24.50	
  1.700	180.000	  3.14833	  1.24068	  1.49964	  1.35501	  1.35365	  0.05747	  3.13848	712.28003	 24.50	
  3.400	180.000	  3.14629	  1.06634	  1.66564	  1.33840	  1.32944	  0.04345	  3.14024	712.20001	 24.50	
  3.388	-152.325	  3.14650	  1.10330	  1.62371	  1.20314	  1.46998	  0.04281	  3.14056	712.34003	 24.50	
  3.397	-124.529	  3.14739	  1.19395	  1.51817	  1.10365	  1.58594	  0.04242	  3.14134	712.29999	 24.50	
  3.399	-96.763	  3.14868	  1.32577	  1.37264	  1.05615	  1.64383	  0.04484	  3.14210	712.28998	 24.50	
  3.394	-69.283	  3.14716	  1.47306	  1.23146	  1.06531	  1.63076	  0.05121	  3.14174	712.26001	 24.50	
  3.400	-41.398	  3.14552	  1.60103	  1.11745	  1.13978	  1.53396	  0.05466	  3.14148	712.21997	 24.50	
  3.401	-14.021	  3.14495	  1.67742	  1.04986	  1.26383	  1.39584	  0.05796	  3.14240	712.28998	 24.50	
  3.401	 14.021	  3.14234	  1.67473	  1.04624	  1.41648	  1.24379	  0.06195	  3.14068	712.34003	 24.50	
  3.400	 41.398	  3.14041	  1.59643	  1.10808	  1.55724	  1.11889	  0.06162	  3.13906	712.32001	 24.50	
  3.394	 69.283	  3.14278	  1.46302	  1.22713	  1.65401	  1.04088	  0.05863	  3.14287	712.29999	 24.50	
  3.399	 96.763	  3.14300	  1.31048	  1.37742	  1.67738	  1.02435	  0.05477	  3.14269	712.40002	 24.50	
  3.397	124.529	  3.14316	  1.17685	  1.51931	  1.61993	  1.07460	  0.04916	  3.14032	712.34998	 24.50	
  3.388	152.325	  3.14464	  1.09528	  1.62186	  1.48876	  1.18956	  0.04634	  3.14017	712.34998	 24.50	
  5.099	161.165	  3.12861	  0.90149	  1.79480	  1.47395	  1.15091	  0.02606	  3.13854	712.28003	 24.50	
  5.109	142.013	  3.12713	  0.96175	  1.71485	  1.62934	  1.01304	  0.03077	  3.13915	712.37000	 24.50	
  5.095	123.033	  3.12842	  1.06519	  1.58779	  1.75382	  0.90624	  0.03367	  3.14286	711.53003	 24.50	
  5.105	104.191	  3.12643	  1.20449	  1.43485	  1.82553	  0.84859	  0.03728	  3.14239	712.35999	 24.50	
  5.093	 85.207	  3.12728	  1.36622	  1.27368	  1.84225	  0.83864	  0.04296	  3.14480	711.63000	 24.40	
  5.104	 66.290	  3.12312	  1.52763	  1.11997	  1.79818	  0.87231	  0.04827	  3.14109	712.34003	 24.40	
  5.094	 47.331	  3.12422	  1.67291	  0.99554	  1.69846	  0.95504	  0.05148	  3.13966	711.71997	 24.40	
  5.089	 28.397	  3.12726	  1.78359	  0.90726	  1.56104	  1.07501	  0.05142	  3.14367	711.96002	 24.40	
  5.096	  9.576	  3.12444	  1.84001	  0.86410	  1.40080	  1.21989	  0.05063	  3.13857	711.51001	 24.40	
  5.096	 -9.576	  3.12833	  1.84353	  0.86610	  1.24193	  1.37663	  0.04824	  3.14095	712.31000	 24.40	
  5.089	-28.397	  3.12984	  1.78548	  0.91320	  1.09335	  1.53370	  0.04258	  3.14123	712.08002	 24.40	
  5.094	-47.331	  3.13021	  1.68300	  0.99708	  0.97759	  1.66931	  0.03671	  3.13994	712.28998	 24.40	
  5.104	-66.290	  3.13288	  1.54185	  1.12043	  0.90150	  1.76592	  0.03131	  3.14119	712.25000	 24.40	
  5.093	-85.207	  3.13398	  1.38128	  1.27200	  0.87268	  1.80591	  0.02699	  3.14038	712.28003	 24.40	
  5.105	-104.191	  3.13574	  1.22220	  1.43149	  0.88188	  1.79333	  0.02381	  3.14042	712.34998	 24.40	
  5.095	-123.033	  3.13843	  1.08550	  1.58759	  0.93858	  1.72532	  0.02275	  3.14352	712.33002	 24.40	
  5.109	-142.013	  3.13377	  0.97713	  1.71184	  1.03344	  1.60734	  0.02230	  3.13860	712.26001	 24.40	
  5.099	-161.165	  3.13520	  0.91246	  1.79726	  1.16675	  1.45984	  0.02415	  3.14147	712.34003	 24.40	
  5.100	180.000	  3.13399	  0.88753	  1.82445	  1.31612	  1.30730	  0.02308	  3.14005	712.29999	 24.40	
  6.800	180.000	  3.10831	  0.69973	  1.98346	  1.28432	  1.27430	  0.00138	  3.14030	712.29999	 24.40	
  6.796	-166.229	  3.10913	  0.71818	  1.96041	  1.13272	  1.42974	 -0.00079	  3.13876	712.28998	 24.40	
  6.808	-152.311	  3.11266	  0.76947	  1.89936	  0.99254	  1.58774	 -0.00089	  3.14031	712.28003	 24.40	
  6.795	-138.383	  3.11179	  0.84758	  1.79868	  0.87331	  1.72501	 -0.00053	  3.13944	712.34998	 24.40	
  6.792	-124.591	  3.11366	  0.95220	  1.67178	  0.78227	  1.83852	 -0.00146	  3.14025	712.35999	 24.40	
  6.787	-110.754	  3.11308	  1.08390	  1.52216	  0.71922	  1.91948	 -0.00201	  3.13984	712.27002	 24.40	
  6.800	-96.985	  3.11122	  1.23208	  1.36182	  0.68417	  1.96378	  0.00050	  3.14021	712.19000	 24.40	
  6.800	-83.015	  3.10891	  1.39162	  1.20314	  0.68347	  1.96385	  0.00511	  3.13926	711.98999	 24.40	
  6.787	-69.246	  3.10861	  1.55037	  1.05678	  0.71934	  1.91870	  0.00763	  3.14061	712.29999	 24.40	
  6.792	-55.409	  3.10476	  1.69985	  0.92628	  0.78342	  1.83633	  0.01419	  3.13745	712.38000	 24.40	
  6.795	-41.617	  3.10077	  1.82434	  0.82014	  0.87136	  1.72276	  0.01692	  3.13741	712.33002	 24.40	
  6.808	-27.689	  3.10062	  1.92659	  0.73557	  0.99167	  1.58352	  0.02227	  3.14041	712.29999	 24.40	
  6.796	-13.771	  3.09804	  1.98845	  0.68627	  1.13862	  1.42333	  0.02958	  3.13940	712.28003	 24.40	
  6.800	  0.000	  3.09657	  2.00532	  0.67045	  1.29515	  1.26346	  0.03200	  3.13986	712.41998	 24.30	
  6.796	 13.771	  3.09730	  1.98213	  0.68813	  1.45481	  1.11364	  0.03330	  3.14200	712.38000	 24.30	
  6.808	 27.689	  3.09348	  1.91787	  0.73414	  1.61475	  0.96774	  0.03593	  3.14021	712.28998	 24.30	
  6.795	 41.617	  3.09023	  1.81550	  0.81381	  1.75598	  0.84752	  0.03515	  3.13848	712.34003	 24.30	
  6.792	 55.409	  3.09335	  1.68604	  0.92244	  1.86925	  0.75559	  0.03043	  3.13958	712.35999	 24.30	
  6.787	 69.246	  3.09256	  1.53195	  1.05457	  1.95155	  0.68733	  0.02580	  3.14041	712.28998	 24.30	
  6.800	 83.015	  3.09268	  1.37289	  1.20330	  1.99515	  0.65338	  0.02594	  3.14042	712.28998	 24.30	
  6.800	 96.985	  3.09492	  1.21282	  1.36374	  1.99507	  0.65376	  0.01966	  3.14154	712.39001	 24.30	
  6.787	110.754	  3.09530	  1.06371	  1.52195	  1.94740	  0.69073	  0.01729	  3.13872	712.45001	 24.30	
  6.792	124.591	  3.09879	  0.93160	  1.67230	  1.86600	  0.75511	  0.01564	  3.14006	712.34003	 24.30	
  6.795	138.383	  3.10019	  0.82599	  1.80039	  1.74819	  0.85053	  0.00972	  3.14006	712.37000	 24.30	
  6.808	152.311	  3.10316	  0.74916	  1.90214	  1.60363	  0.97544	  0.00317	  3.13972	712.28998	 24.30	
  6.796	166.229	  3.10312	  0.70742	  1.96140	  1.44182	  1.12136	  0.00232	  3.13815	712.29999	 24.30	
  8.491	168.704	  3.07058	  0.51861	  2.11785	  1.40961	  1.07891	 -0.02544	  3.14158	712.21002	 24.30	
  8.502	157.493	  3.06624	  0.55265	  2.06486	  1.57386	  0.92800	 -0.02416	  3.14019	712.21002	 24.30	
  8.494	146.194	  3.06238	  0.61607	  1.97568	  1.73379	  0.79103	 -0.02011	  3.13974	712.26001	 24.30	
  8.495	135.039	  3.06025	  0.70180	  1.86486	  1.86979	  0.67918	 -0.01428	  3.13769	712.29999	 24.30	
  8.487	123.723	  3.06092	  0.81486	  1.72775	  1.99056	  0.58572	 -0.01052	  3.14177	712.39001	 24.30	
  8.492	112.575	  3.05569	  0.94255	  1.57714	  2.07665	  0.51832	 -0.01083	  3.14076	712.28998	 24.30	
  8.510	101.220	  3.05160	  1.09365	  1.40927	  2.13276	  0.47498	 -0.00888	  3.13987	711.59003	 24.30	
  8.500	 90.000	  3.04885	  1.25170	  1.24674	  2.15011	  0.46268	 -0.00459	  3.13958	711.79999	 24.30	
  8.510	 78.780	  3.04559	  1.41525	  1.08682	  2.13339	  0.47355	  0.00155	  3.13593	712.21002	 24.30	
  8.492	 67.425	  3.04932	  1.58460	  0.93708	  2.08056	  0.51865	  0.00282	  3.14178	712.31000	 24.30	
  8.487	 56.277	  3.04747	  1.73766	  0.80438	  1.99386	  0.58403	  0.00486	  3.13896	712.21997	 24.30	
  8.495	 44.961	  3.04872	  1.87576	  0.68845	  1.87860	  0.67328	  0.00888	  3.13983	712.27002	 24.30	
  8.494	 33.806	  3.04617	  1.98898	  0.59974	  1.74578	  0.78165	  0.01360	  3.13739	712.25000	 24.30	
  8.502	 22.507	  3.05041	  2.07889	  0.53452	  1.58914	  0.91901	  0.01341	  3.13865	712.29999	 24.30	
  8.491	 11.296	  3.05371	  2.13458	  0.49465	  1.42431	  1.06793	  0.01003	  3.14155	712.28998	 24.30	
  8.500	  0.000	  3.05337	  2.15303	  0.48306	  1.26013	  1.22480	  0.00894	  3.13852	712.37000	 24.30	
  8.491	-11.296	  3.05568	  2.13750	  0.49647	  1.09690	  1.39031	  0.00590	  3.13751	712.38000	 24.30	
  8.502	-22.507	  3.05832	  2.08888	  0.53478	  0.94462	  1.55480	 -0.00100	  3.13979	712.26001	 24.30	
  8.494	-33.806	  3.06065	  2.00470	  0.60130	  0.81256	  1.70829	 -0.00845	  3.13857	712.31000	 24.30	
  8.495	-44.961	  3.06154	  1.89134	  0.69163	  0.70195	  1.84148	 -0.01164	  3.13716	712.31000	 24.20	
  8.487	-56.277	  3.06763	  1.75450	  0.80775	  0.61152	  1.95988	 -0.01388	  3.13877	712.33002	 24.30	
  8.492	-67.425	  3.06774	  1.60335	  0.93608	  0.54440	  2.04568	 -0.01995	  3.13728	712.32001	 24.30	
  8.510	-78.780	  3.06921	  1.44102	  1.08431	  0.50105	  2.10344	 -0.02408	  3.13779	712.13000	 24.20	
  8.500	-90.000	  3.07396	  1.27618	  1.24383	  0.48810	  2.12449	 -0.02488	  3.14130	712.22998	 24.20	
  8.510	-101.220	  3.07317	  1.11725	  1.40672	  0.50102	  2.10519	 -0.02584	  3.13727	712.20001	 24.20	
  8.492	-112.575	  3.07659	  0.96381	  1.57368	  0.54250	  2.05075	 -0.02805	  3.14002	712.34003	 24.20	
  8.487	-123.723	  3.07901	  0.83785	  1.72488	  0.60890	  1.96596	 -0.02892	  3.14044	712.28998	 24.20	
  8.495	-135.039	  3.07830	  0.72362	  1.86199	  0.69628	  1.85184	 -0.02757	  3.14025	712.17999	 24.20	
  8.494	-146.194	  3.07773	  0.63486	  1.97566	  0.80587	  1.71801	 -0.02581	  3.14023	712.27002	 24.20	
  8.502	-157.493	  3.07585	  0.56682	  2.06331	  0.93819	  1.56487	 -0.02747	  3.13973	712.27002	 24.20	
  8.491	-168.704	  3.07492	  0.52752	  2.11398	  1.08820	  1.40187	 -0.02812	  3.13995	712.25000	 24.20	
  8.500	180.000	  3.07259	  0.51016	  2.13541	  1.24854	  1.23798	 -0.02544	  3.14095	712.15997	 24.20	
 10.200	180.000	  3.02591	  0.32428	  2.27634	  1.20331	  1.19174	 -0.05325	  3.14028	712.34998	 24.20	
 10.191	-170.497	  3.03045	  0.33935	  2.26029	  1.04125	  1.36047	 -0.05569	  3.14235	712.23999	 24.20	
 10.210	-161.034	  3.02921	  0.37208	  2.21316	  0.88481	  1.52698	 -0.05416	  3.13913	712.21002	 24.20	
 10.194	-151.526	  3.03359	  0.42840	  2.14021	  0.74739	  1.68766	 -0.05139	  3.14109	712.20001	 24.20	
 10.190	-142.105	  3.03233	  0.50489	  2.03678	  0.62647	  1.83468	 -0.04903	  3.13948	712.21002	 24.20	
 10.215	-132.646	  3.03319	  0.59809	  1.91576	  0.51670	  1.97182	 -0.05387	  3.14113	712.16998	 24.20	
 10.203	-123.092	  3.03145	  0.71424	  1.77123	  0.42886	  2.08718	 -0.05556	  3.14135	712.08002	 24.20	
 10.192	-113.678	  3.03095	  0.84541	  1.61544	  0.36562	  2.17313	 -0.05617	  3.14219	712.21002	 24.20	
 10.208	-104.249	  3.02859	  0.99194	  1.45148	  0.32329	  2.23394	 -0.05208	  3.14223	712.25000	 24.20	
 10.210	-94.801	  3.02743	  1.15038	  1.28427	  0.30242	  2.26313	 -0.04968	  3.14111	712.21002	 24.20	
 10.210	-85.199	  3.02309	  1.31640	  1.11746	  0.30372	  2.26057	 -0.05051	  3.13870	712.28998	 24.20	
 10.208	-75.751	  3.02113	  1.48407	  0.96089	  0.32538	  2.22992	 -0.05056	  3.13972	712.22998	 24.20	
 10.192	-66.322	  3.01902	  1.64675	  0.81487	  0.36812	  2.16811	 -0.04729	  3.13866	712.31000	 24.20	
 10.203	-56.908	  3.01668	  1.80311	  0.68191	  0.43338	  2.08048	 -0.04423	  3.14005	712.35999	 24.20	
 10.215	-47.354	  3.01352	  1.94431	  0.56694	  0.52133	  1.96559	 -0.03929	  3.14017	712.37000	 24.20	
 10.190	-37.895	  3.01157	  2.06666	  0.47257	  0.63322	  1.82699	 -0.03720	  3.13943	712.38000	 24.20	
 10.194	-28.474	  3.00617	  2.16600	  0.39454	  0.75356	  1.67875	 -0.03218	  3.13725	712.28003	 24.20	
 10.210	-18.966	  3.00438	  2.23993	  0.33732	  0.89310	  1.51809	 -0.02731	  3.13880	712.29999	 24.20	
 10.191	 -9.503	  3.00330	  2.28301	  0.30674	  1.05325	  1.34924	 -0.02087	  3.13975	712.21997	 24.20	
 10.200	  0.000	  2.99868	  2.29460	  0.29393	  1.21552	  1.18056	 -0.01789	  3.13838	712.23999	 24.20	
 10.191	  9.503	  2.99992	  2.27841	  0.30584	  1.38407	  1.02278	 -0.01728	  3.14144	712.03998	 24.20	
 10.210	 18.966	  2.99537	  2.23049	  0.33593	  1.55149	  0.86776	 -0.01366	  3.13984	711.91998	 24.20	
 10.194	 28.474	  2.99635	  2.15403	  0.39387	  1.71550	  0.72842	 -0.00954	  3.14117	712.31000	 24.20	
 10.190	 37.895	  2.99393	  2.05088	  0.47014	  1.86244	  0.60693	 -0.01083	  3.13960	712.14001	 24.20	
 10.215	 47.354	  2.99188	  1.92502	  0.56597	  1.99763	  0.49764	 -0.01854	  3.13925	712.21002	 24.10	
 10.203	 56.908	  2.99096	  1.78002	  0.68331	  2.11347	  0.41089	 -0.02349	  3.13918	712.21997	 24.20	
 10.192	 66.322	  2.99254	  1.62337	  0.81644	  2.19955	  0.34830	 -0.02524	  3.13918	712.28003	 24.10	
 10.208	 75.751	  2.99385	  1.45758	  0.96289	  2.26330	  0.30110	 -0.02643	  3.14092	712.31000	 24.10	
 10.210	 85.199	  2.99378	  1.28962	  1.11888	  2.29194	  0.27830	 -0.02943	  3.13995	712.23999	 24.10	
 10.210	 94.801	  2.99560	  1.12252	  1.28505	  2.29043	  0.27928	 -0.03577	  3.13973	712.28003	 24.10	
 10.208	104.249	  2.99797	  0.96453	  1.45351	  2.25900	  0.30057	 -0.03852	  3.14003	712.32001	 24.10	
 10.192	113.678	  3.00243	  0.82022	  1.61812	  2.19498	  0.34876	 -0.03827	  3.13968	712.29999	 24.10	
 10.203	123.092	  3.00542	  0.69015	  1.77271	  2.10595	  0.41452	 -0.03893	  3.14005	712.27002	 24.10	
 10.215	132.646	  3.00835	  0.57668	  1.91603	  1.99135	  0.50344	 -0.04126	  3.14032	712.26001	 24.10	
 10.190	142.105	  3.01294	  0.48326	  2.03935	  1.85256	  0.61237	 -0.04724	  3.14115	712.34998	 24.10	
 10.194	151.526	  3.01396	  0.40895	  2.13956	  1.70320	  0.73442	 -0.04920	  3.14044	712.39001	 24.10	
 10.210	161.034	  3.01999	  0.35975	  2.21635	  1.53972	  0.87733	 -0.04946	  3.14106	712.47998	 24.10	
 10.191	170.497	  3.02130	  0.33276	  2.25918	  1.36963	  1.03383	 -0.05022	  3.13895	712.45001	 24.10	
 11.899	171.783	  2.96249	  0.14914	  2.39154	  1.31849	  0.98010	 -0.07712	  3.13835	712.41998	 24.10	
 11.890	163.610	  2.95733	  0.17381	  2.35009	  1.48759	  0.82371	 -0.07691	  3.13762	712.42999	 24.10	
 11.889	155.445	  2.95548	  0.21524	  2.28736	  1.65521	  0.67906	 -0.07959	  3.13872	712.39001	 24.10	
 11.909	147.299	  2.95190	  0.27208	  2.19936	  1.81225	  0.54801	 -0.08116	  3.13916	712.40997	 24.10	
 11.902	139.148	  2.94942	  0.34914	  2.08994	  1.96220	  0.42928	 -0.07608	  3.13967	712.46997	 24.10	
 11.894	130.867	  2.94309	  0.44901	  1.95445	  2.09535	  0.32825	 -0.07230	  3.13809	712.42999	 24.10	
 11.897	122.732	  2.94238	  0.56244	  1.81015	  2.21091	  0.24471	 -0.06985	  3.14070	712.45001	 24.10	
 11.903	114.597	  2.93960	  0.69113	  1.65522	  2.30068	  0.18173	 -0.06973	  3.13952	712.41998	 24.10	
 11.893	106.346	  2.93651	  0.83688	  1.48851	  2.36761	  0.13654	 -0.07008	  3.13967	712.32001	 24.10	
 11.892	 98.155	  2.93161	  0.99071	  1.31915	  2.40822	  0.11018	 -0.06696	  3.13922	712.32001	 24.10	
 11.900	 90.000	  2.93063	  1.15183	  1.15273	  2.42582	  0.09600	 -0.06432	  3.14024	712.40002	 24.10	
 11.892	 81.845	  2.92767	  1.31734	  0.99231	  2.41266	  0.10568	 -0.05969	  3.13816	712.37000	 24.10	
 11.893	 73.654	  2.92652	  1.48913	  0.83463	  2.37201	  0.13378	 -0.05872	  3.13902	712.29999	 24.10	
 11.903	 65.403	  2.92487	  1.65633	  0.68875	  2.30796	  0.17895	 -0.05949	  3.13944	712.34003	 24.10	
 11.897	 57.268	  2.92579	  1.81191	  0.56097	  2.21907	  0.24234	 -0.05534	  3.14035	712.29999	 24.10	
 11.894	 49.133	  2.92333	  1.95954	  0.44342	  2.10717	  0.32325	 -0.05077	  3.13816	712.29999	 24.10	
 11.902	 40.852	  2.92637	  2.09553	  0.34163	  1.97459	  0.42503	 -0.04361	  3.13951	712.39001	 24.10	
 11.909	 32.701	  2.92680	  2.20750	  0.25978	  1.82626	  0.54074	 -0.03824	  3.13745	712.34998	 24.10	
 11.889	 24.555	  2.92963	  2.29866	  0.19710	  1.66813	  0.67204	 -0.04095	  3.13972	712.46002	 24.10	
 11.890	 16.390	  2.93193	  2.36642	  0.15047	  1.50460	  0.81490	 -0.04364	  3.14026	712.32001	 24.10	
 11.899	  8.217	  2.93393	  2.40973	  0.12275	  1.33406	  0.96954	 -0.04431	  3.14110	712.38000	 24.10	
 11.900	  0.000	  2.93632	  2.42534	  0.11375	  1.16608	  1.13219	 -0.04614	  3.14054	712.28998	 24.10	
 11.899	 -8.217	  2.93893	  2.41493	  0.12103	  1.00016	  1.30026	 -0.04909	  3.14081	712.39001	 24.10	
 11.890	-16.390	  2.94038	  2.37609	  0.15070	  0.84355	  1.46970	 -0.05351	  3.13939	712.34003	 24.10	
 11.889	-24.555	  2.94128	  2.31193	  0.19631	  0.69928	  1.63211	 -0.06040	  3.13759	712.21997	 24.10	
 11.909	-32.701	  2.94567	  2.22775	  0.25979	  0.56748	  1.79212	 -0.06553	  3.13924	712.28998	 24.10	
 11.902	-40.852	  2.94757	  2.11857	  0.33860	  0.44916	  1.93844	 -0.06697	  3.13942	712.21997	 24.10	
 11.894	-49.133	  2.94991	  1.98509	  0.43938	  0.34630	  2.07355	 -0.06864	  3.13780	712.28998	 24.10	
 11.897	-57.268	  2.95376	  1.83957	  0.55636	  0.26324	  2.18620	 -0.06908	  3.13863	712.35999	 24.10	
 11.903	-65.403	  2.95679	  1.68490	  0.68680	  0.20038	  2.27496	 -0.07158	  3.13768	712.33002	 24.10	
 11.893	-73.654	  2.95784	  1.51761	  0.83278	  0.15470	  2.34111	 -0.07248	  3.13690	712.41998	 24.10	
 11.892	-81.845	  2.96289	  1.34881	  0.98982	  0.12667	  2.38329	 -0.07214	  3.13848	712.34998	 24.10	
 11.900	-90.000	  2.96487	  1.18401	  1.14945	  0.11762	  2.39900	 -0.07132	  3.13902	712.33002	 24.10	
 11.892	-98.155	  2.96709	  1.02071	  1.31428	  0.12373	  2.38728	 -0.07157	  3.13955	712.32001	 24.10	
 11.893	-106.346	  2.96611	  0.86359	  1.48455	  0.15200	  2.34420	 -0.07165	  3.13684	712.38000	 24.10	
 11.903	-114.597	  2.96742	  0.71933	  1.65087	  0.19805	  2.27752	 -0.07438	  3.13627	712.21997	 24.10	
 11.897	-122.732	  2.97170	  0.59061	  1.80771	  0.26160	  2.19010	 -0.07709	  3.13753	712.13000	 24.10	
 11.894	-130.867	  2.97236	  0.47356	  1.95463	  0.34015	  2.07921	 -0.07695	  3.13937	712.29999	 24.10	
 11.902	-139.148	  2.97376	  0.37189	  2.08903	  0.44032	  1.94614	 -0.07352	  3.14073	712.29999	 24.10	
 11.909	-147.299	  2.97100	  0.29255	  2.19702	  0.55646	  1.79950	 -0.07513	  3.13657	712.29999	 24.00	
 11.889	-155.445	  2.97156	  0.23111	  2.28514	  0.68783	  1.64330	 -0.07896	  3.13771	712.41998	 24.10	
 11.890	-163.610	  2.96940	  0.18352	  2.35012	  0.83026	  1.47970	 -0.08238	  3.13751	712.35999	 24.10	
 11.899	-171.783	  2.96852	  0.15131	  2.39429	  0.98557	  1.31055	 -0.08246	  3.13965	712.34003	 24.00	
 11.900	180.000	  2.96587	  0.13977	  2.40647	  1.15139	  1.14019	 -0.08232	  3.14012	712.32001	 24.00	
 13.600	180.000	  2.89327	 -0.04002	  2.52805	  1.08868	  1.08325	 -0.10326	  3.13675	712.37000	 24.10	
 13.608	-172.853	  2.89701	 -0.03072	  2.51903	  0.92743	  1.24936	 -0.10390	  3.13865	712.41998	 24.00	
 13.611	-165.583	  2.89885	 -0.00583	  2.48209	  0.76736	  1.42192	 -0.10240	  3.13825	712.35999	 24.00	
 13.601	-158.353	  2.90616	  0.03503	  2.42578	  0.62372	  1.59070	 -0.10045	  3.14236	712.38000	 24.00	
 13.609	-151.210	  2.90360	  0.09118	  2.34387	  0.48867	  1.75158	 -0.09588	  3.14004	712.39001	 24.00	
 13.611	-143.999	  2.90498	  0.15944	  2.24274	  0.36247	  1.90829	 -0.09396	  3.14055	712.37000	 24.00	
 13.601	-136.825	  2.90456	  0.24740	  2.12089	  0.25709	  2.04858	 -0.09122	  3.13834	712.38000	 24.00	
 13.596	-129.640	  2.90498	  0.34790	  1.98686	  0.16903	  2.17571	 -0.08959	  3.13881	712.42999	 24.00	
