FileType=PCF
NHL=14
Date=05/29/19	12:14:12
Facility=APL
Serial=16071-11
Customer=NASA
NP=6
Mach=0.550000
Calibration=1:1
CalPts=490
TstPts=95
PortNumbering=AP Standard
Units=Torr C m/s kg/m^3 deg mm 
Theta[deg]	Phi[deg]	P1[Torr]	P2[Torr]	P3[Torr]	P4[Torr]	P5[Torr]	P6[Torr]	Pt[Torr]	Ps[Abs,Torr]	Ts[C]	
  0.000	  0.000	160.87103	 76.33707	 76.18585	 71.20731	 75.70486	  6.28471	160.74036	701.90997	 43.20	
  1.691	128.401	160.94875	 71.33530	 81.03089	 77.63625	 69.00215	  6.18558	160.83292	701.92999	 43.20	
  1.692	 77.194	160.92912	 77.83913	 74.49241	 79.37366	 67.18504	  6.23298	160.82034	701.79999	 43.20	
  1.699	 26.182	160.97748	 83.05613	 69.09798	 75.12961	 71.77859	  6.21099	160.87234	701.85999	 43.20	
  1.699	-26.182	160.98169	 83.09136	 68.99886	 67.79666	 78.82185	  6.18610	160.87886	701.90002	 43.20	
  1.692	-77.194	160.99255	 77.99078	 74.25014	 63.42021	 82.86344	  6.12242	160.90202	701.84003	 43.20	
  1.691	-128.401	161.03842	 71.48195	 80.82542	 64.70520	 81.49751	  6.11587	160.94891	701.95001	 43.30	
  1.700	180.000	161.02110	 68.50001	 83.83763	 70.95904	 75.61843	  6.09565	160.90228	701.96002	 43.30	
  3.400	180.000	160.88028	 59.60196	 91.64382	 70.25781	 75.24339	  5.61030	160.93930	701.87000	 43.30	
  3.388	-152.325	160.85362	 61.67813	 89.37835	 62.46054	 82.23785	  5.61878	160.94429	701.78003	 43.30	
  3.397	-124.529	160.84787	 67.03498	 84.06910	 56.98825	 88.00018	  5.65250	160.95000	701.77002	 43.30	
  3.399	-96.763	160.82178	 74.21065	 77.02320	 54.72196	 90.64132	  5.68368	160.95996	701.91998	 43.30	
  3.394	-69.283	160.82336	 81.23859	 69.66940	 55.96555	 89.57246	  5.69787	160.97040	701.81000	 43.30	
  3.400	-41.398	160.79529	 87.69206	 63.50583	 60.51201	 84.85568	  5.72512	160.96344	701.79999	 43.40	
  3.401	-14.021	160.79446	 91.15691	 60.30584	 67.34801	 78.43602	  5.76534	160.95776	701.83002	 43.50	
  3.401	 14.021	160.82568	 91.03300	 60.42067	 75.43214	 70.55167	  5.84431	160.96440	701.90002	 43.60	
  3.400	 41.398	160.84076	 87.35918	 63.88692	 82.29088	 63.66059	  5.86989	160.96529	701.92999	 43.60	
  3.394	 69.283	160.91379	 81.14549	 70.28278	 86.54910	 59.65846	  5.91457	160.97899	701.94000	 43.50	
  3.399	 96.763	160.94482	 73.98005	 77.84096	 87.21555	 58.95994	  5.88907	160.99791	701.90002	 43.50	
  3.397	124.529	160.91852	 66.99287	 84.66150	 84.25708	 61.53745	  5.78326	160.95767	701.94000	 43.50	
  3.388	152.325	160.98206	 61.60311	 89.74023	 78.17450	 67.25677	  5.69882	161.00679	701.85999	 43.50	
  5.099	161.165	160.37527	 52.76266	 97.81650	 77.41473	 66.10418	  4.99760	161.00813	701.87000	 43.50	
  5.109	142.013	160.44846	 56.06116	 94.03781	 84.84182	 59.53932	  5.10057	161.05786	701.75000	 43.50	
  5.095	123.033	160.39299	 62.00068	 87.85120	 90.56851	 54.44986	  5.23143	161.03607	701.77002	 43.60	
  5.105	104.191	160.40599	 69.35063	 81.01342	 94.19269	 51.42751	  5.26493	161.06149	701.71002	 43.70	
  5.093	 85.207	160.35609	 76.99722	 73.14205	 94.93946	 50.85896	  5.30725	161.07896	701.81000	 43.70	
  5.104	 66.290	160.31297	 84.34187	 65.31211	 93.16494	 52.51001	  5.32549	161.10039	701.72998	 43.70	
  5.094	 47.331	160.27596	 91.00803	 59.04578	 88.71920	 56.41030	  5.31281	161.09888	701.76001	 43.70	
  5.089	 28.397	160.27637	 95.86626	 54.69661	 82.51735	 61.99459	  5.30396	161.13507	701.79999	 43.70	
  5.096	  9.576	160.18045	 98.67219	 52.15705	 74.87692	 68.93471	  5.23570	161.09880	701.76001	 43.70	
  5.096	 -9.576	160.13388	 98.75546	 51.93747	 66.59263	 77.66100	  5.22586	161.05969	701.67999	 43.80	
  5.089	-28.397	160.11569	 96.15585	 54.22226	 59.16349	 84.49693	  5.14950	161.03220	701.67999	 43.80	
  5.094	-47.331	160.18321	 91.13088	 58.45469	 53.00619	 91.14054	  5.17691	161.11647	701.64001	 43.80	
  5.104	-66.290	160.18851	 84.50535	 64.31189	 48.63990	 95.90198	  5.11158	161.11618	701.77002	 43.80	
  5.093	-85.207	160.20949	 77.06780	 72.25014	 46.70341	 98.06458	  5.08003	161.07999	701.78003	 43.90	
  5.105	-104.191	160.23630	 69.48880	 79.91354	 47.00093	 97.46742	  5.02203	161.06310	701.70001	 43.90	
  5.095	-123.033	160.34056	 61.74751	 87.11932	 50.00712	 94.28480	  5.02570	161.11208	701.71997	 44.00	
  5.109	-142.013	160.43398	 56.40983	 93.40484	 54.45849	 88.93268	  5.01829	161.13718	701.90997	 44.00	
  5.099	-161.165	160.44331	 53.12583	 97.39455	 61.08840	 81.83485	  4.96571	161.09198	701.89001	 44.00	
  5.100	180.000	160.57509	 51.83847	 98.90755	 69.29470	 74.60523	  4.93368	161.21570	701.78998	 44.00	
  6.800	180.000	159.50510	 43.87534	105.68103	 67.82860	 73.56285	  4.36665	161.19504	701.82001	 44.10	
  6.796	-166.229	159.48436	 44.79675	104.57950	 60.11241	 80.95132	  4.43787	161.20512	701.78998	 44.10	
  6.808	-152.311	159.37259	 47.31483	101.57175	 52.95064	 87.99789	  4.49156	161.13631	701.92999	 44.10	
  6.795	-138.383	159.32628	 51.21635	 96.98180	 47.32757	 94.49010	  4.53259	161.20352	701.84998	 44.00	
  6.792	-124.591	159.27716	 56.03851	 90.80804	 43.11976	 99.73923	  4.52527	161.19698	701.83002	 44.00	
  6.787	-110.754	159.18713	 62.55911	 83.85960	 39.89922	103.35346	  4.55057	161.20892	701.85999	 44.00	
  6.800	-96.985	159.02582	 70.47550	 76.49872	 38.06318	105.21045	  4.59346	161.14270	701.90997	 44.00	
  6.800	-83.015	158.98506	 77.94276	 68.53430	 38.33537	105.11393	  4.63857	161.17659	701.84998	 44.10	
  6.787	-69.246	158.98026	 85.11678	 61.28207	 40.28339	102.98235	  4.65744	161.19618	701.89001	 44.10	
  6.792	-55.409	158.96275	 91.84901	 55.26928	 43.67175	 99.15469	  4.68096	161.21332	701.91998	 44.10	
  6.795	-41.617	158.94331	 97.96189	 50.27539	 48.53928	 93.50797	  4.72592	161.18549	701.85999	 44.10	
  6.808	-27.689	158.98955	102.58511	 46.49621	 54.67331	 86.72453	  4.71522	161.21375	701.77002	 44.10	
  6.796	-13.771	158.96884	105.32935	 44.10669	 62.23338	 79.82700	  4.77236	161.18837	701.88000	 44.10	
  6.800	  0.000	159.01323	106.18252	 43.45831	 69.98283	 71.65101	  4.74565	161.20859	701.83002	 44.00	
  6.796	 13.771	159.03525	105.17876	 44.43702	 77.69461	 64.10178	  4.71347	161.22757	701.84003	 44.00	
  6.808	 27.689	159.09888	102.29639	 47.03124	 85.08208	 57.32703	  4.71949	161.25044	701.84003	 44.10	
  6.795	 41.617	159.11357	 97.85810	 50.99724	 91.56596	 51.57916	  4.73086	161.24680	701.76001	 44.10	
  6.792	 55.409	159.17476	 91.73169	 55.84662	 96.80383	 47.35963	  4.65154	161.22211	701.89001	 44.10	
  6.787	 69.246	159.24942	 84.96865	 62.37733	100.40957	 44.34955	  4.67617	161.24507	701.87000	 44.20	
  6.800	 83.015	159.31473	 77.77169	 70.17345	102.26939	 42.57983	  4.67514	161.24107	701.88000	 44.30	
  6.800	 96.985	159.44218	 70.19509	 78.01073	102.07180	 42.69826	  4.65460	161.26495	701.83002	 44.30	
  6.787	110.754	159.55644	 62.82233	 85.22200	100.01024	 44.62430	  4.71856	161.30557	701.84998	 44.30	
  6.792	124.591	159.53653	 55.61618	 91.98129	 96.05442	 47.89177	  4.70290	161.26395	701.85999	 44.30	
  6.795	138.383	159.57170	 50.86231	 97.99969	 90.43266	 52.49084	  4.61369	161.27606	701.91998	 44.40	
  6.808	152.311	159.58987	 47.01992	102.35019	 83.60793	 58.68079	  4.48265	161.27643	701.87000	 44.40	
  6.796	166.229	159.60652	 44.69666	104.92371	 76.09813	 65.50353	  4.42760	161.28311	701.84003	 44.30	
  8.491	168.704	158.06372	 36.34273	112.16458	 74.65560	 64.19459	  4.20222	161.31039	701.84998	 44.30	
  8.502	157.493	158.07127	 38.11619	109.82853	 82.39895	 57.07232	  4.26788	161.30991	701.87000	 44.30	
  8.494	146.194	158.06700	 41.50064	105.81086	 89.63835	 50.49676	  4.31084	161.30260	701.84003	 44.30	
  8.495	135.039	157.99236	 45.79158	100.81052	 96.32269	 44.89205	  4.38532	161.24986	701.78998	 44.30	
  8.487	123.723	157.96461	 51.23911	 94.60629	101.79916	 40.37321	  4.37659	161.30428	701.77002	 44.30	
  8.492	112.575	157.89757	 56.83657	 87.91020	105.75922	 36.99857	  4.29444	161.27467	701.84003	 44.30	
  8.510	101.220	157.82475	 64.79446	 80.37811	108.42680	 34.72827	  4.15634	161.29211	701.91998	 44.20	
  8.500	 90.000	157.70604	 72.62832	 72.52956	109.34211	 34.13288	  4.13413	161.25417	701.83002	 44.20	
  8.510	 78.780	157.61702	 80.27943	 64.70424	108.82561	 34.64014	  4.15972	161.29912	701.89001	 44.20	
  8.492	 67.425	157.56335	 87.60210	 57.15607	106.36658	 36.78686	  4.15224	161.30597	701.90002	 44.20	
  8.487	 56.277	157.50188	 94.52887	 51.19869	102.46629	 39.97987	  4.23266	161.29132	701.94000	 44.20	
  8.495	 44.961	157.41394	100.76405	 45.78237	 97.30013	 44.08078	  4.27518	161.29071	701.85999	 44.20	
  8.494	 33.806	157.35283	105.97428	 41.38052	 90.87856	 49.17276	  4.34623	161.26762	701.78003	 44.30	
  8.502	 22.507	157.31261	109.80412	 37.98146	 83.97527	 55.25025	  4.41654	161.29292	701.87000	 44.30	
  8.491	 11.296	157.22037	112.08521	 35.91088	 76.39310	 62.34388	  4.43930	161.26944	701.85999	 44.30	
  8.500	  0.000	157.22374	112.91729	 35.24215	 68.48196	 69.91502	  4.52730	161.26140	701.90002	 44.30	
  8.491	-11.296	157.25092	112.04465	 35.68158	 60.55854	 78.34223	  4.57502	161.27940	701.79999	 44.30	
  8.502	-22.507	157.19983	109.84211	 37.50624	 52.68066	 85.54303	  4.57447	161.24744	701.78003	 44.20	
  8.494	-33.806	157.18721	106.03368	 40.68529	 46.49848	 92.56440	  4.55421	161.22861	701.89001	 44.20	
  8.495	-44.961	157.22954	100.99219	 44.87973	 40.86544	 99.10463	  4.59088	161.27258	701.90997	 44.30	
  8.487	-56.277	157.27820	 94.43591	 50.14413	 36.24670	104.75146	  4.56489	161.30983	701.81000	 44.20	
  8.492	-67.425	157.21803	 87.75636	 55.69864	 32.75766	108.57829	  4.47467	161.24326	701.84003	 44.30	
  8.510	-78.780	157.29303	 80.47799	 62.94075	 30.54176	111.34417	  4.45610	161.28642	701.78998	 44.30	
  8.500	-90.000	157.31972	 72.88383	 70.58614	 29.92338	112.16875	  4.44672	161.28438	701.91998	 44.30	
  8.510	-101.220	157.40092	 65.14117	 78.54372	 30.25807	111.44741	  4.39936	161.26343	701.84003	 44.30	
  8.492	-112.575	157.59119	 57.48075	 86.03155	 32.40691	109.11021	  4.35345	161.27441	701.81000	 44.30	
  8.487	-123.723	157.69957	 51.68659	 93.10111	 35.59137	105.45267	  4.30366	161.27432	701.82001	 44.30	
  8.495	-135.039	157.84282	 46.38222	 99.61388	 39.78925	100.31670	  4.29514	161.31039	701.85999	 44.30	
  8.494	-146.194	157.86279	 41.92912	104.80008	 45.27913	 94.04904	  4.32965	161.23816	701.84998	 44.30	
  8.502	-157.493	157.95006	 38.64988	108.97182	 51.07226	 87.09177	  4.33428	161.25763	701.76001	 44.40	
  8.491	-168.704	158.02531	 36.50848	111.70638	 58.37165	 80.09141	  4.22331	161.27023	701.81000	 44.50	
  8.500	180.000	157.99652	 35.72990	112.75281	 66.51569	 72.17491	  4.20355	161.24423	701.71002	 44.60	
 10.200	180.000	156.03867	 27.91409	118.97459	 64.62973	 70.32291	  4.32361	161.28633	701.71002	 44.70	
 10.191	-170.497	155.99242	 28.33539	118.03898	 56.22484	 78.54974	  4.38192	161.27147	701.78003	 44.70	
 10.210	-161.034	155.95145	 29.92910	115.80640	 49.11937	 86.11434	  4.42983	161.28763	701.83002	 44.80	
 10.194	-151.526	155.90182	 32.69770	112.40792	 42.84715	 92.98965	  4.39522	161.32300	701.78998	 44.80	
 10.190	-142.105	155.81575	 36.60445	107.41034	 37.04946	 99.70263	  4.41082	161.29373	701.84998	 44.80	
 10.215	-132.646	155.72971	 41.05283	101.87152	 31.97644	105.83284	  4.47035	161.35036	701.87000	 44.80	
 10.203	-123.092	155.60017	 46.81551	 95.02931	 27.00137	110.78083	  4.50887	161.33174	701.81000	 44.80	
 10.192	-113.678	155.46263	 52.86996	 88.03146	 24.26994	114.60258	  4.48083	161.36917	701.69000	 44.70	
 10.208	-104.249	155.26199	 59.05539	 80.33147	 22.32917	117.39256	  4.49324	161.33453	701.75000	 44.70	
 10.210	-94.801	155.13124	 67.24894	 72.28628	 21.48109	118.73632	  4.51658	161.35417	701.75000	 44.60	
 10.210	-85.199	154.99057	 75.17556	 64.34367	 21.46606	118.60550	  4.55960	161.32280	701.72998	 44.60	
 10.208	-75.751	154.95006	 82.70904	 56.83987	 22.49899	117.07456	  4.59217	161.34483	701.77002	 44.50	
 10.192	-66.322	154.92413	 89.97278	 50.57147	 24.89321	113.99266	  4.64673	161.34511	701.84998	 44.50	
 10.203	-56.908	154.91815	 96.79508	 44.67081	 28.30170	109.94463	  4.64923	161.33420	701.72998	 44.50	
 10.215	-47.354	154.84489	103.47885	 39.10620	 32.73413	104.68958	  4.69906	161.31389	701.71002	 44.50	
 10.190	-37.895	154.94507	108.93280	 34.82909	 38.24294	 98.21990	  4.68214	161.30847	701.73999	 44.60	
 10.194	-28.474	154.95949	113.25519	 31.32646	 44.24273	 91.47513	  4.65537	161.33179	701.66998	 44.60	
 10.210	-18.966	154.93111	116.77659	 28.79144	 50.94366	 84.12400	  4.69733	161.31525	701.65002	 44.70	
 10.191	 -9.503	154.98441	118.98775	 27.39820	 58.58403	 76.23662	  4.68081	161.35870	701.62000	 44.70	
 10.200	  0.000	154.99432	119.59447	 27.13276	 66.65351	 68.08752	  4.58491	161.34895	701.71002	 44.70	
 10.191	  9.503	155.04964	118.66366	 27.73586	 74.83015	 60.45387	  4.53726	161.37772	701.66998	 44.70	
 10.210	 18.966	155.05727	116.50460	 29.42109	 82.54384	 53.22772	  4.48325	161.35965	701.75000	 44.60	
 10.194	 28.474	155.09087	113.21111	 32.20282	 89.69341	 46.71568	  4.40631	161.34502	701.77002	 44.60	
 10.190	 37.895	155.16721	108.68828	 36.01484	 96.73341	 41.09085	  4.25376	161.38913	701.78003	 44.70	
 10.215	 47.354	155.20575	103.20287	 40.56467	102.79741	 36.49730	  4.21361	161.36296	701.81000	 44.70	
 10.203	 56.908	155.30861	 96.41351	 46.23396	108.11263	 32.60411	  4.11448	161.36658	701.65997	 44.80	
 10.192	 66.322	155.34186	 89.66982	 52.33171	111.88090	 29.46103	  4.02677	161.34389	701.75000	 44.80	
 10.208	 75.751	155.47060	 82.44859	 59.13052	114.79883	 27.18380	  4.01542	161.38710	701.65997	 44.90	
 10.210	 85.199	155.57269	 74.64152	 66.92438	116.17649	 26.05326	  4.01939	161.39455	701.70001	 44.90	
 10.210	 94.801	155.68005	 66.65257	 74.81805	116.02869	 26.09945	  4.00970	161.37704	701.75000	 44.90	
 10.208	104.249	155.73764	 58.57579	 82.70735	114.39465	 27.21715	  4.06321	161.35905	701.79999	 44.90	
 10.192	113.678	155.89891	 52.11300	 90.39008	111.37490	 29.54445	  4.27674	161.37836	701.83002	 44.90	
 10.203	123.092	155.96704	 46.19240	 96.99716	107.22681	 32.76560	  4.33030	161.38864	701.79999	 44.90	
 10.215	132.646	156.00839	 40.46728	103.39418	101.89492	 37.13248	  4.39609	161.38000	701.81000	 45.00	
 10.190	142.105	156.09508	 35.96021	108.89420	 95.42855	 42.50672	  4.44918	161.37352	701.73999	 45.10	
 10.194	151.526	156.18423	 32.36231	113.53534	 88.20456	 48.53832	  4.42385	161.40404	701.81000	 45.10	
 10.210	161.034	156.11638	 29.63074	116.75554	 80.77249	 55.27389	  4.33308	161.37785	701.78998	 45.10	
 10.191	170.497	156.15453	 28.46928	118.53690	 72.79289	 62.65295	  4.27979	161.38869	701.82001	 45.10	
 11.899	171.783	153.63203	 20.04327	124.75784	 70.43794	 60.71819	  4.50389	161.40714	701.73999	 45.10	
 11.890	163.610	153.62244	 21.23227	123.15740	 78.51149	 53.30185	  4.51922	161.40744	701.84998	 45.10	
 11.889	155.445	153.68285	 23.54977	120.14517	 86.23753	 46.41461	  4.70990	161.39555	701.72998	 45.10	
 11.909	147.299	153.57552	 26.56459	116.34314	 93.67183	 40.02539	  4.70705	161.40189	701.77002	 45.20	
 11.902	139.148	153.61343	 30.58402	111.28439	100.73099	 34.41423	  4.75072	161.44179	701.71002	 45.20	
 11.894	130.867	153.56844	 35.49984	105.29840	107.06893	 29.41336	  4.48437	161.44916	701.76001	 45.10	
 11.897	122.732	153.45778	 40.61311	 98.91219	112.39814	 25.26193	  4.44820	161.47809	701.62000	 45.10	
 11.903	114.597	153.25047	 46.64605	 92.08471	116.56103	 21.85178	  4.44693	161.39017	701.71002	 45.10	
 11.893	106.346	153.18039	 53.46220	 84.52893	119.88849	 19.49892	  4.23304	161.42101	701.71002	 45.10	
 11.892	 98.155	153.07045	 60.54847	 76.41377	121.90969	 18.17238	  4.19383	161.38832	701.72998	 45.10	
 11.900	 90.000	152.95908	 68.25668	 68.65530	122.65452	 17.73160	  4.21388	161.43536	701.84998	 45.20	
 11.892	 81.845	152.83463	 76.22742	 61.07528	122.14064	 18.03128	  4.16728	161.43163	701.71002	 45.20	
 11.893	 73.654	152.71852	 84.10917	 53.66261	120.37391	 19.46483	  4.32196	161.43578	701.66998	 45.30	
 11.903	 65.403	152.58182	 91.37032	 46.76652	117.25394	 21.79004	  4.29254	161.40128	701.72998	 45.30	
 11.897	 57.268	152.59247	 98.37265	 40.71237	112.94569	 24.66717	  4.29913	161.42690	701.75000	 45.30	
 11.894	 49.133	152.54288	105.18846	 35.16661	107.84248	 28.62532	  4.45202	161.47696	701.76001	 45.30	
 11.902	 40.852	152.42723	111.11378	 30.34641	101.71133	 33.39234	  4.49509	161.43073	701.71997	 45.30	
 11.909	 32.701	152.33414	116.10066	 26.15577	 95.08028	 38.17550	  4.53942	161.44096	701.79999	 45.30	
 11.889	 24.555	152.36903	120.24582	 23.13172	 87.94559	 44.15450	  4.61126	161.46249	701.84998	 45.30	
 11.890	 16.390	152.27960	123.36292	 20.59612	 80.44807	 50.88755	  4.73465	161.47130	701.77002	 45.30	
 11.899	  8.217	152.19574	125.17404	 19.07070	 72.48093	 58.26873	  4.72678	161.43721	701.84998	 45.30	
 11.900	  0.000	152.23567	125.87181	 18.69147	 64.35370	 65.89697	  4.75954	161.46361	701.82001	 45.20	
 11.899	 -8.217	152.21504	125.25122	 18.83198	 56.38784	 73.60531	  4.85699	161.42035	701.81000	 45.20	
 11.890	-16.390	152.21870	123.47194	 19.98380	 48.90092	 81.82777	  4.89217	161.44165	701.73999	 45.20	
 11.889	-24.555	152.22908	120.40182	 22.15707	 42.01762	 89.44860	  4.88190	161.44464	701.65002	 45.20	
 11.909	-32.701	152.14967	116.34450	 24.87914	 35.47635	 96.75858	  4.87808	161.48665	701.71002	 45.20	
 11.902	-40.852	152.14651	111.44758	 28.85336	 29.66166	103.56264	  4.90916	161.44096	701.67999	 45.20	
 11.894	-49.133	152.13271	105.44544	 33.42063	 24.67033	109.77914	  4.82789	161.41623	701.71002	 45.20	
 11.897	-57.268	152.02974	 98.60429	 38.74650	 20.35398	114.85030	  4.78056	161.35240	701.75000	 45.20	
 11.903	-65.403	152.07597	 91.62586	 44.71555	 17.05060	119.18160	  4.80968	161.41608	701.66998	 45.10	
 11.893	-73.654	152.09973	 84.28545	 51.51397	 14.58426	122.47284	  4.77909	161.37228	701.69000	 45.10	
 11.892	-81.845	152.25255	 76.50587	 58.20884	 13.34200	124.55781	  4.76101	161.41342	701.65002	 45.10	
 11.900	-90.000	152.30635	 68.85936	 65.69754	 13.10847	125.13744	  4.71525	161.40219	701.75000	 45.10	
 11.892	-98.155	152.49478	 60.87973	 73.37810	 13.22475	124.73923	  4.70861	161.49265	701.73999	 45.10	
 11.893	-106.346	152.62292	 54.07897	 81.69691	 14.23723	123.00128	  4.71610	161.45644	701.66998	 45.10	
 11.903	-114.597	152.83722	 47.47254	 89.44446	 16.07867	120.03666	  4.69997	161.49026	701.64001	 45.10	
 11.897	-122.732	153.03992	 41.21347	 96.73643	 19.69816	115.92970	  4.78345	161.50623	701.65002	 45.10	
 11.894	-130.867	153.19365	 35.81672	103.54951	 23.81720	110.92041	  4.72663	161.45250	701.57001	 45.20	
 11.902	-139.148	153.31252	 31.03852	109.86362	 28.72130	104.99001	  4.55246	161.45944	701.70001	 45.20	
 11.909	-147.299	153.39839	 27.05786	114.99610	 34.11779	 98.33788	  4.55184	161.44875	701.72998	 45.30	
 11.889	-155.445	153.53981	 23.82407	119.02921	 40.40788	 91.80834	  4.64742	161.44345	701.66998	 45.30	
 11.890	-163.610	153.67526	 21.53367	122.35468	 47.20817	 84.38388	  4.60665	161.46672	701.76001	 45.40	
 11.899	-171.783	153.68593	 20.14685	124.39780	 54.11927	 76.43623	  4.67407	161.46234	701.63000	 45.40	
 11.900	180.000	153.70096	 19.87054	125.15377	 62.43856	 68.25338	  4.51210	161.45747	701.65002	 45.40	
 13.600	180.000	150.65385	 11.28640	130.57635	 59.48215	 65.62920	  4.69672	161.44228	701.71997	 45.40	
 13.608	-172.853	150.60698	 11.40102	129.90424	 52.04670	 73.34203	  4.85623	161.44310	701.75000	 45.50	
 13.611	-165.583	150.65834	 12.62015	128.20801	 44.67467	 81.83958	  4.84340	161.48097	701.77002	 45.50	
 13.601	-158.353	150.49127	 14.58458	125.41136	 37.61305	 89.50705	  4.74780	161.44702	701.76001	 45.50	
 13.609	-151.210	150.37581	 17.35009	121.55565	 31.15076	 96.48009	  4.73931	161.42682	701.77002	 45.60	
 13.611	-143.999	150.34038	 21.10435	116.78162	 25.29686	103.45004	  4.73765	161.47133	701.76001	 45.60	
 13.601	-136.825	150.21347	 25.52286	111.25222	 20.22130	109.85848	  4.73663	161.46715	701.67999	 45.60	
 13.596	-129.640	150.00984	 30.23649	104.84171	 15.56749	115.53609	  4.88064	161.45090	701.69000	 45.60	
