FileType=PCF
NHL=14
Date=03/12/19	11:34:58
Facility=APL
Serial=16071-11
Customer=NASA
NP=6
Mach=0.230000
Calibration=1:1
CalPts=490
TstPts=95
PortNumbering=AP Standard
Units=Torr C m/s kg/m^3 deg mm 
Theta[deg]	Phi[deg]	P1[Torr]	P2[Torr]	P3[Torr]	P4[Torr]	P5[Torr]	P6[Torr]	Pt[Torr]	Ps[Abs,Torr]	Ts[C]	
  0.000	  0.000	 25.57717	 10.85139	 10.74022	 10.95324	 10.27170	  0.53571	 25.53144	712.14001	 30.60	
  1.691	128.401	 25.56833	  9.95253	 11.55784	 11.98767	  9.18187	  0.50169	 25.52986	712.15997	 30.60	
  1.692	 77.194	 25.56321	 11.10103	 10.40212	 12.26832	  8.90570	  0.54392	 25.53257	712.15002	 30.60	
  1.699	 26.182	 25.57017	 12.07570	  9.47816	 11.53972	  9.62631	  0.56199	 25.52838	712.13000	 30.60	
  1.699	-26.182	 25.58861	 12.10665	  9.49902	 10.33325	 10.86544	  0.54921	 25.55029	712.09003	 30.50	
  1.692	-77.194	 25.56483	 11.14186	 10.40352	  9.58059	 11.61963	  0.51405	 25.52384	712.09998	 30.50	
  1.691	-128.401	 25.57552	  9.99195	 11.56350	  9.82442	 11.35304	  0.48586	 25.53752	712.10999	 30.50	
  1.700	180.000	 25.56707	  9.43469	 12.09628	 10.89969	 10.24794	  0.48047	 25.52847	712.01001	 30.50	
  3.400	180.000	 25.53839	  8.02775	 13.45576	 10.79710	 10.15981	  0.37877	 25.54239	712.16998	 30.50	
  3.388	-152.325	 25.54657	  8.36463	 13.12915	  9.53519	 11.46975	  0.38188	 25.54432	712.14001	 30.50	
  3.397	-124.529	 25.55850	  9.22780	 12.20070	  8.54664	 12.53038	  0.39894	 25.53897	712.17999	 30.50	
  3.399	-96.763	 25.54081	 10.45191	 10.93507	  8.09125	 13.02141	  0.42424	 25.51800	712.09003	 30.40	
  3.394	-69.283	 25.54695	 11.75439	  9.66140	  8.25548	 12.86047	  0.45861	 25.53061	712.20001	 30.40	
  3.400	-41.398	 25.52634	 12.87904	  8.61107	  9.01105	 12.02958	  0.49167	 25.52297	712.09998	 30.40	
  3.401	-14.021	 25.52958	 13.52263	  8.02452	 10.17637	 10.80184	  0.52533	 25.53151	712.08002	 30.40	
  3.401	 14.021	 25.50776	 13.51154	  7.99530	 11.50603	  9.46238	  0.54031	 25.53208	712.14001	 30.40	
  3.400	 41.398	 25.49539	 12.85926	  8.54683	 12.69082	  8.30883	  0.53030	 25.52599	712.09003	 30.40	
  3.394	 69.283	 25.47261	 11.67369	  9.62018	 13.44876	  7.57188	  0.51208	 25.51112	712.17999	 30.30	
  3.399	 96.763	 25.50056	 10.35085	 10.93418	 13.64263	  7.45055	  0.46458	 25.53384	712.23999	 30.30	
  3.397	124.529	 25.49741	  9.13779	 12.17096	 13.13670	  7.90750	  0.42980	 25.52180	712.21002	 30.30	
  3.388	152.325	 25.51546	  8.32086	 13.10110	 12.09981	  8.88870	  0.39733	 25.53107	712.16998	 30.30	
  5.099	161.165	 25.38897	  6.79798	 14.48948	 11.95675	  8.66907	  0.23872	 25.51737	712.10999	 30.30	
  5.109	142.013	 25.36977	  7.35826	 13.79730	 13.25753	  7.47664	  0.27366	 25.52405	712.21002	 30.30	
  5.095	123.033	 25.34826	  8.28179	 12.72967	 14.24105	  6.60114	  0.26702	 25.52411	712.09003	 30.20	
  5.105	104.191	 25.32731	  9.47302	 11.43312	 14.83992	  6.11152	  0.33672	 25.52107	712.15002	 30.20	
  5.093	 85.207	 25.31931	 10.81805	 10.07758	 14.94837	  5.99093	  0.34736	 25.52044	712.22998	 30.20	
  5.104	 66.290	 25.31211	 12.20480	  8.76132	 14.59070	  6.25087	  0.36028	 25.52025	712.13000	 30.20	
  5.094	 47.331	 25.31835	 13.44649	  7.67007	 13.79493	  6.94651	  0.44415	 25.52712	712.21997	 30.20	
  5.089	 28.397	 25.32515	 14.32913	  6.93438	 12.66419	  7.98107	  0.45333	 25.50340	712.17999	 30.20	
  5.096	  9.576	 25.35001	 14.84316	  6.56921	 11.34903	  9.24679	  0.44229	 25.51501	712.21997	 30.20	
  5.096	 -9.576	 25.36129	 14.86219	  6.58365	  9.99617	 10.61651	  0.43973	 25.51012	712.21002	 30.10	
  5.089	-28.397	 25.40293	 14.39316	  7.00085	  8.71032	 11.99299	  0.41315	 25.52169	712.28003	 30.10	
  5.094	-47.331	 25.40811	 13.51406	  7.77037	  7.64435	 13.17098	  0.38459	 25.51050	712.23999	 30.10	
  5.104	-66.290	 25.42312	 12.34149	  8.84929	  6.97890	 13.97654	  0.35701	 25.51500	712.13000	 30.10	
  5.093	-85.207	 25.44395	 10.99086	 10.10119	  6.71444	 14.30926	  0.31505	 25.52036	712.29999	 30.10	
  5.105	-104.191	 25.44747	  9.65630	 11.45064	  6.79137	 14.20508	  0.28879	 25.51714	712.15997	 30.10	
  5.095	-123.033	 25.45235	  8.45956	 12.74058	  7.28621	 13.60691	  0.23355	 25.51935	712.21002	 30.00	
  5.109	-142.013	 25.43615	  7.44384	 13.82282	  8.10191	 12.64674	  0.25398	 25.51909	712.15997	 30.00	
  5.099	-161.165	 25.40634	  6.82349	 14.49439	  9.26429	 11.33971	  0.19872	 25.49947	712.21002	 30.00	
  5.100	180.000	 25.40532	  6.59953	 14.75482	 10.59787	  9.97694	  0.24460	 25.51010	712.21002	 30.00	
  6.800	180.000	 25.20101	  5.22376	 15.99994	 10.32540	  9.73999	  0.05279	 25.51364	712.25000	 30.00	
  6.796	-166.229	 25.22387	  5.39288	 15.80632	  9.03453	 11.07864	 -0.00078	 25.51039	712.17999	 30.00	
  6.808	-152.311	 25.22217	  5.82489	 15.29268	  7.80533	 12.40882	  0.01678	 25.48708	712.31000	 30.00	
  6.795	-138.383	 25.26677	  6.50931	 14.50637	  6.83182	 13.56121	  0.08089	 25.51040	712.25000	 30.00	
  6.792	-124.591	 25.25382	  7.41703	 13.44828	  6.09384	 14.51163	  0.03281	 25.50280	712.26001	 29.90	
  6.787	-110.754	 25.27145	  8.56143	 12.20413	  5.56992	 15.19674	  0.08467	 25.51617	712.16998	 29.90	
  6.800	-96.985	 25.25673	  9.78909	 10.86994	  5.24561	 15.55985	  0.05881	 25.51339	712.10999	 29.90	
  6.800	-83.015	 25.22358	 11.09628	  9.53665	  5.21595	 15.56003	  0.09715	 25.49345	712.22998	 29.90	
  6.787	-69.246	 25.22182	 12.43607	  8.30416	  5.47343	 15.20349	  0.16556	 25.50801	712.31000	 29.90	
  6.792	-55.409	 25.20932	 13.67159	  7.21403	  6.01500	 14.54261	  0.15353	 25.50422	712.22998	 29.90	
  6.795	-41.617	 25.18408	 14.72935	  6.29050	  6.82576	 13.57710	  0.18476	 25.50837	712.16998	 29.90	
  6.808	-27.689	 25.14750	 15.55149	  5.57266	  7.84087	 12.37265	  0.21444	 25.50442	712.35999	 29.90	
  6.796	-13.771	 25.12888	 16.03622	  5.17625	  9.07205	 11.02722	  0.27052	 25.50020	712.23999	 29.90	
  6.800	  0.000	 25.09421	 16.18486	  5.00797	 10.39639	  9.66104	  0.33412	 25.50209	712.16998	 29.80	
  6.796	 13.771	 25.06397	 15.97657	  5.13135	 11.71151	  8.35324	  0.25833	 25.48502	712.21997	 29.80	
  6.808	 27.689	 25.05517	 15.45958	  5.51020	 13.04778	  7.12169	  0.26444	 25.51566	712.23999	 29.80	
  6.795	 41.617	 25.04154	 14.59071	  6.20151	 14.23335	  6.10496	  0.23652	 25.50605	712.25000	 29.80	
  6.792	 55.409	 25.03197	 13.51105	  7.08363	 15.18545	  5.29623	  0.20472	 25.51164	712.19000	 29.80	
  6.787	 69.246	 25.03787	 12.23202	  8.21243	 15.85579	  4.76250	  0.17187	 25.52190	712.20001	 29.80	
  6.800	 83.015	 25.03677	 10.88223	  9.48122	 16.20308	  4.51199	  0.13329	 25.51385	712.25000	 29.80	
  6.800	 96.985	 25.04770	  9.52599	 10.84435	 16.18524	  4.55881	  0.08666	 25.50878	712.20001	 29.80	
  6.787	110.754	 25.06187	  8.27354	 12.17337	 15.81972	  4.87615	  0.16579	 25.50296	712.15002	 29.70	
  6.792	124.591	 25.09632	  7.18326	 13.42702	 15.13914	  5.42289	  0.06139	 25.50555	712.16998	 29.70	
  6.795	138.383	 25.12708	  6.32384	 14.48845	 14.19621	  6.19172	  0.10951	 25.50840	712.22998	 29.70	
  6.808	152.311	 25.13477	  5.73168	 15.29486	 13.00194	  7.24423	  0.05416	 25.50200	712.21997	 29.70	
  6.796	166.229	 25.16105	  5.36633	 15.79837	 11.67279	  8.45205	  0.01681	 25.49504	712.15997	 29.70	
  8.491	168.704	 24.87964	  3.85896	 17.04941	 11.39706	  8.09978	 -0.17913	 25.50429	712.23999	 29.70	
  8.502	157.493	 24.83090	  4.11482	 16.60518	 12.76075	  6.82946	 -0.24329	 25.49419	712.21002	 29.70	
  8.494	146.194	 24.80631	  4.57413	 15.90411	 14.04784	  5.69277	 -0.15123	 25.49573	712.23999	 29.70	
  8.495	135.039	 24.77302	  5.23507	 14.98800	 15.15876	  4.76384	 -0.19712	 25.49997	712.16998	 29.70	
  8.487	123.723	 24.73914	  6.16109	 13.85350	 16.12243	  4.02978	 -0.16437	 25.49245	712.26001	 29.60	
  8.492	112.575	 24.71834	  7.26078	 12.59113	 16.85718	  3.47664	 -0.14355	 25.50141	712.29999	 29.60	
  8.510	101.220	 24.68657	  8.52449	 11.21669	 17.31088	  3.10531	 -0.10126	 25.50231	712.40002	 29.60	
  8.500	 90.000	 24.67542	  9.86432	  9.86824	 17.46541	  2.97828	 -0.12297	 25.50910	712.26001	 29.60	
  8.510	 78.780	 24.64637	 11.23712	  8.49734	 17.33938	  3.03871	 -0.08667	 25.50052	712.34998	 29.60	
  8.492	 67.425	 24.65650	 12.62731	  7.23943	 16.88838	  3.38139	 -0.06853	 25.50513	712.22998	 29.60	
  8.487	 56.277	 24.64637	 13.89976	  6.13748	 16.18073	  3.91387	 -0.04096	 25.49258	712.27002	 29.60	
  8.495	 44.961	 24.66751	 15.07374	  5.19757	 15.22668	  4.68769	  0.00460	 25.49410	712.27002	 29.60	
  8.494	 33.806	 24.67763	 16.03715	  4.43614	 14.11308	  5.60558	  0.04776	 25.49591	712.26001	 29.60	
  8.502	 22.507	 24.70259	 16.78838	  3.87893	 12.81616	  6.72865	  0.05078	 25.50753	712.32001	 29.50	
  8.491	 11.296	 24.71219	 17.23072	  3.58574	 11.42794	  8.02832	  0.04491	 25.48785	712.17999	 29.50	
  8.500	  0.000	 24.74447	 17.41063	  3.51899	 10.05975	  9.37057	  0.04203	 25.49100	712.33002	 29.50	
  8.491	-11.296	 24.78501	 17.28007	  3.66937	  8.71432	 10.75870	  0.03455	 25.49312	712.31000	 29.50	
  8.502	-22.507	 24.80312	 16.86819	  4.00483	  7.44994	 12.13813	 -0.00556	 25.48812	712.33002	 29.50	
  8.494	-33.806	 24.84715	 16.17902	  4.56930	  6.35783	 13.42400	 -0.02963	 25.48590	712.28003	 29.50	
  8.495	-44.961	 24.86196	 15.25393	  5.30131	  5.43644	 14.56386	 -0.06219	 25.48626	712.25000	 29.50	
  8.487	-56.277	 24.89013	 14.12952	  6.25395	  4.67714	 15.51939	 -0.08835	 25.48605	712.20001	 29.50	
  8.492	-67.425	 24.90682	 12.88169	  7.32328	  4.11595	 16.23660	 -0.12495	 25.48940	712.23999	 29.50	
  8.510	-78.780	 24.91928	 11.51893	  8.57502	  3.75988	 16.69675	 -0.14869	 25.48075	712.31000	 29.50	
  8.500	-90.000	 24.93410	 10.15257	  9.90512	  3.66242	 16.82948	 -0.16436	 25.49270	712.28998	 29.40	
  8.510	-101.220	 24.93974	  8.83084	 11.26848	  3.79419	 16.68311	 -0.18382	 25.47986	712.28998	 29.40	
  8.492	-112.575	 24.96159	  7.56526	 12.64172	  4.13329	 16.22914	 -0.19836	 25.48431	712.17999	 29.40	
  8.487	-123.723	 24.97048	  6.47981	 13.89132	  4.66046	 15.53971	 -0.14527	 25.49007	712.22998	 29.40	
  8.495	-135.039	 24.96627	  5.56992	 15.00146	  5.39647	 14.57450	 -0.17402	 25.48271	712.31000	 29.40	
  8.494	-146.194	 24.95755	  4.80580	 15.92258	  6.27688	 13.45317	 -0.17528	 25.48541	712.27002	 29.40	
  8.502	-157.493	 24.94180	  4.24772	 16.62263	  7.37995	 12.16774	 -0.22904	 25.49661	712.33002	 29.40	
  8.491	-168.704	 24.90847	  3.91054	 17.03559	  8.64516	 10.79387	 -0.24318	 25.48204	712.27002	 29.40	
  8.500	180.000	 24.88857	  3.76565	 17.19199	 10.00121	  9.40307	 -0.15529	 25.48639	712.13000	 29.40	
 10.200	180.000	 24.50694	  2.25724	 18.32821	  9.60259	  9.04610	 -0.47225	 25.49437	712.15002	 29.40	
 10.191	-170.497	 24.52981	  2.38912	 18.20199	  8.24225	 10.44217	 -0.47753	 25.47825	712.17999	 29.40	
 10.210	-161.034	 24.55226	  2.63692	 17.85915	  6.95815	 11.83130	 -0.46500	 25.49063	712.13000	 29.40	
 10.194	-151.526	 24.56311	  3.09837	 17.24578	  5.78672	 13.16805	 -0.44367	 25.47782	712.32001	 29.30	
 10.190	-142.105	 24.58988	  3.72202	 16.44057	  4.77919	 14.41684	 -0.41375	 25.48246	712.28003	 29.30	
 10.215	-132.646	 24.60050	  4.52456	 15.43873	  3.88600	 15.55963	 -0.43111	 25.49247	712.22998	 29.30	
 10.203	-123.092	 24.58732	  5.49124	 14.23654	  3.17284	 16.49967	 -0.43662	 25.47317	712.21002	 29.30	
 10.192	-113.678	 24.58703	  6.59830	 12.96500	  2.66778	 17.22716	 -0.43844	 25.48871	712.22998	 29.30	
 10.208	-104.249	 24.57134	  7.82238	 11.59836	  2.32947	 17.71822	 -0.40653	 25.48149	712.23999	 29.30	
 10.210	-94.801	 24.56539	  9.14396	 10.22569	  2.16454	 17.97358	 -0.38627	 25.48883	712.17999	 29.30	
 10.210	-85.199	 24.54660	 10.51705	  8.84452	  2.15469	 17.97234	 -0.40083	 25.49216	712.23999	 29.30	
 10.208	-75.751	 24.52659	 11.89107	  7.53766	  2.31923	 17.71838	 -0.39530	 25.49076	712.15997	 29.30	
 10.192	-66.322	 24.49788	 13.26543	  6.28700	  2.70703	 17.21150	 -0.37688	 25.48053	712.22998	 29.30	
 10.203	-56.908	 24.48711	 14.53850	  5.20528	  3.26798	 16.49742	 -0.34585	 25.48400	712.23999	 29.30	
 10.215	-47.354	 24.46028	 15.70765	  4.23668	  3.99171	 15.54344	 -0.32180	 25.48722	712.21997	 29.30	
 10.190	-37.895	 24.42759	 16.71233	  3.44822	  4.89475	 14.39422	 -0.30272	 25.48726	712.21002	 29.30	
 10.194	-28.474	 24.39556	 17.51621	  2.83811	  5.89799	 13.15174	 -0.27464	 25.48765	712.21002	 29.30	
 10.210	-18.966	 24.35914	 18.10796	  2.37774	  7.02285	 11.79651	 -0.22594	 25.48565	712.09003	 29.20	
 10.191	 -9.503	 24.33070	 18.43862	  2.10452	  8.32824	 10.40166	 -0.18395	 25.47785	712.08002	 29.20	
 10.200	  0.000	 24.29973	 18.54816	  1.96887	  9.69223	  8.99377	 -0.17964	 25.48725	712.27002	 29.20	
 10.191	  9.503	 24.27898	 18.40010	  2.01962	 11.08424	  7.62519	 -0.18808	 25.49577	712.21002	 29.20	
 10.210	 18.966	 24.24373	 18.01006	  2.23519	 12.50327	  6.30703	 -0.18578	 25.49311	712.28003	 29.20	
 10.194	 28.474	 24.21636	 17.36353	  2.68152	 13.83838	  5.12324	 -0.17064	 25.49184	712.25000	 29.20	
 10.190	 37.895	 24.19114	 16.49870	  3.33449	 15.06215	  4.09971	 -0.18633	 25.48008	712.29999	 29.20	
 10.215	 47.354	 24.17699	 15.45625	  4.12367	 16.20444	  3.17877	 -0.24582	 25.49514	712.22998	 29.20	
 10.203	 56.908	 24.16735	 14.23331	  5.09987	 17.14528	  2.45197	 -0.31692	 25.48274	712.25000	 29.20	
 10.192	 66.322	 24.16180	 12.92531	  6.20724	 17.86939	  1.93558	 -0.32788	 25.48497	712.29999	 29.20	
 10.208	 75.751	 24.15533	 11.54212	  7.43551	 18.34683	  1.58052	 -0.34209	 25.48372	712.21997	 29.20	
 10.210	 85.199	 24.17389	 10.14743	  8.77690	 18.58739	  1.41879	 -0.35892	 25.48806	712.21997	 29.20	
 10.210	 94.801	 24.20070	  8.77669	 10.16378	 18.56837	  1.46279	 -0.40508	 25.48624	712.15997	 29.10	
 10.208	104.249	 24.23310	  7.44656	 11.55440	 18.31701	  1.68254	 -0.42815	 25.48810	712.26001	 29.10	
 10.192	113.678	 24.25517	  6.24128	 12.91236	 17.80996	  2.02014	 -0.42681	 25.48929	712.20001	 29.10	
 10.203	123.092	 24.28311	  5.13519	 14.19109	 17.08018	  2.55658	 -0.40857	 25.48939	712.23999	 29.10	
 10.215	132.646	 24.31132	  4.14781	 15.38901	 16.11736	  3.29336	 -0.43469	 25.48169	712.28003	 29.10	
 10.190	142.105	 24.36100	  3.39973	 16.41214	 14.99792	  4.15569	 -0.46381	 25.49651	712.26001	 29.10	
 10.194	151.526	 24.38254	  2.81375	 17.22297	 13.75222	  5.17923	 -0.47649	 25.47512	712.26001	 29.10	
 10.210	161.034	 24.42020	  2.46273	 17.83852	 12.40406	  6.37933	 -0.47807	 25.48002	712.32001	 29.10	
 10.191	170.497	 24.47077	  2.34236	 18.19078	 11.00087	  7.69066	 -0.47041	 25.48099	712.22998	 29.10	
 11.899	171.783	 23.98794	  0.83488	 19.29370	 10.54704	  7.26485	 -0.67654	 25.48630	712.15997	 29.10	
 11.890	163.610	 23.95727	  0.93347	 18.96814	 11.96649	  5.94688	 -0.68320	 25.48653	712.27002	 29.10	
 11.889	155.445	 23.91018	  1.20105	 18.42871	 13.34464	  4.73157	 -0.70630	 25.49207	712.25000	 29.10	
 11.909	147.299	 23.87416	  1.63334	 17.70878	 14.64862	  3.63265	 -0.72456	 25.49139	712.28003	 29.10	
 11.902	139.148	 23.82911	  2.26382	 16.78563	 15.87611	  2.68321	 -0.69886	 25.48866	712.29999	 29.10	
 11.894	130.867	 23.78543	  3.08488	 15.68519	 16.98558	  1.84312	 -0.67811	 25.47759	712.32001	 29.00	
 11.897	122.732	 23.76182	  4.05597	 14.48176	 17.92483	  1.16997	 -0.65330	 25.48651	712.32001	 29.00	
 11.903	114.597	 23.72748	  5.15061	 13.19289	 18.66307	  0.63882	 -0.67525	 25.48575	712.19000	 29.00	
 11.893	106.346	 23.70373	  6.38255	 11.82304	 19.20318	  0.27817	 -0.68375	 25.48271	712.38000	 29.00	
 11.892	 98.155	 23.67748	  7.66767	 10.41047	 19.53324	  0.10158	 -0.66898	 25.47695	712.28003	 29.00	
 11.900	 90.000	 23.65747	  9.01863	  9.03621	 19.65583	 -0.02196	 -0.62830	 25.48479	712.28003	 29.00	
 11.892	 81.845	 23.63688	 10.39192	  7.71078	 19.55394	  0.04648	 -0.61213	 25.48812	712.26001	 29.00	
 11.893	 73.654	 23.61374	 11.80560	  6.35101	 19.24392	  0.24390	 -0.60459	 25.48230	712.25000	 29.00	
 11.903	 65.403	 23.61034	 13.19853	  5.13938	 18.70881	  0.60745	 -0.60826	 25.48203	712.21002	 29.00	
 11.897	 57.268	 23.60998	 14.49470	  4.07448	 17.98847	  1.11573	 -0.58760	 25.48862	712.27002	 29.00	
 11.894	 49.133	 23.63465	 15.73313	  3.12765	 17.07926	  1.77097	 -0.52048	 25.49547	712.25000	 29.00	
 11.902	 40.852	 23.63403	 16.85255	  2.27344	 15.97007	  2.59485	 -0.44098	 25.49360	712.33002	 29.00	
 11.909	 32.701	 23.65994	 17.80099	  1.61329	 14.76700	  3.55207	 -0.39745	 25.49233	712.28998	 29.00	
 11.889	 24.555	 23.67676	 18.54069	  1.10788	 13.46115	  4.63635	 -0.41509	 25.47428	712.21002	 29.00	
 11.890	 16.390	 23.70368	 19.11333	  0.74078	 12.09969	  5.85689	 -0.42344	 25.47952	712.21997	 29.00	
 11.899	  8.217	 23.75472	 19.48113	  0.55168	 10.68614	  7.17180	 -0.42528	 25.49425	712.21002	 29.00	
 11.900	  0.000	 23.77151	 19.60680	  0.51774	  9.27076	  8.55995	 -0.40988	 25.48784	712.23999	 29.00	
 11.899	 -8.217	 23.79485	 19.52749	  0.60973	  7.89892	  9.96554	 -0.41200	 25.48466	712.27002	 29.00	
 11.890	-16.390	 23.82754	 19.22119	  0.83330	  6.59745	 11.35521	 -0.45590	 25.47453	712.27002	 28.90	
 11.889	-24.555	 23.86222	 18.72499	  1.18343	  5.43762	 12.73917	 -0.48781	 25.48140	712.21997	 29.00	
 11.909	-32.701	 23.87790	 18.02260	  1.63845	  4.33683	 14.06351	 -0.53405	 25.47455	712.38000	 29.00	
 11.902	-40.852	 23.91404	 17.12305	  2.32593	  3.38010	 15.30414	 -0.54211	 25.47849	712.37000	 28.90	
 11.894	-49.133	 23.95283	 16.05068	  3.18955	  2.57318	 16.42002	 -0.54916	 25.48315	712.32001	 28.90	
 11.897	-57.268	 23.98328	 14.86101	  4.14051	  1.90001	 17.34360	 -0.54936	 25.48100	712.26001	 28.90	
 11.903	-65.403	 24.00814	 13.59458	  5.19211	  1.34091	 18.09731	 -0.57773	 25.48081	712.28998	 28.90	
 11.893	-73.654	 24.01761	 12.22115	  6.40923	  0.93862	 18.63616	 -0.60008	 25.47957	712.32001	 28.90	
 11.892	-81.845	 24.04064	 10.80460	  7.74322	  0.70118	 18.97075	 -0.59652	 25.47174	712.29999	 28.90	
 11.900	-90.000	 24.06281	  9.42401	  9.10532	  0.60513	 19.09172	 -0.57830	 25.47279	712.32001	 28.90	
 11.892	-98.155	 24.06999	  8.08241	 10.47091	  0.65538	 18.97652	 -0.56474	 25.46052	712.33002	 28.90	
 11.893	-106.346	 24.09862	  6.76438	 11.89327	  0.88305	 18.65285	 -0.58609	 25.46951	712.28998	 28.90	
 11.903	-114.597	 24.11288	  5.56002	 13.25162	  1.22190	 18.10430	 -0.60959	 25.46942	712.28003	 28.90	
 11.897	-122.732	 24.13029	  4.48709	 14.55090	  1.74866	 17.36474	 -0.62283	 25.47390	712.38000	 28.90	
 11.894	-130.867	 24.13704	  3.53221	 15.76057	  2.41978	 16.44850	 -0.61451	 25.48325	712.28998	 28.90	
 11.902	-139.148	 24.13907	  2.67555	 16.86691	  3.23590	 15.34548	 -0.60223	 25.49780	712.31000	 28.90	
 11.909	-147.299	 24.10604	  1.98597	 17.75434	  4.20313	 14.10849	 -0.61656	 25.47762	712.38000	 28.90	
 11.889	-155.445	 24.11052	  1.49333	 18.46439	  5.31431	 12.79650	 -0.64827	 25.48526	712.31000	 28.90	
 11.890	-163.610	 24.08358	  1.12722	 18.98212	  6.49289	 11.43105	 -0.68162	 25.47775	712.25000	 28.90	
 11.899	-171.783	 24.05523	  0.93455	 19.29974	  7.83102	 10.02096	 -0.69983	 25.48865	712.20001	 28.80	
 11.900	180.000	 24.02060	  0.77968	 19.40464	  9.16145	  8.61492	 -0.67757	 25.46872	712.31000	 28.80	
 13.600	180.000	 23.46174	 -0.62398	 20.40211	  8.69862	  8.14190	 -0.84798	 25.48505	712.27002	 28.80	
 13.608	-172.853	 23.49492	 -0.59516	 20.33426	  7.29173	  9.53969	 -0.85384	 25.49095	712.21002	 28.80	
 13.611	-165.583	 23.52059	 -0.40670	 20.05790	  5.95553	 10.97683	 -0.84956	 25.49161	712.27002	 28.80	
 13.601	-158.353	 23.55754	 -0.08353	 19.58532	  4.77348	 12.34311	 -0.79861	 25.48454	712.34003	 28.80	
 13.609	-151.210	 23.56255	  0.36224	 18.93923	  3.64807	 13.69129	 -0.76787	 25.47448	712.27002	 28.80	
 13.611	-143.999	 23.56716	  0.95104	 18.11273	  2.62066	 14.99934	 -0.73521	 25.48630	712.28003	 28.80	
 13.601	-136.825	 23.58528	  1.63474	 17.12746	  1.77207	 16.17191	 -0.72268	 25.48005	712.35999	 28.80	
 13.596	-129.640	 23.58790	  2.48214	 16.02416	  1.02491	 17.23260	 -0.72757	 25.47643	712.32001	 28.80	
