FileType=PCF
NHL=14
Date=03/12/19	12:12:15
Facility=APL
Serial=16071-11
Customer=NASA
NP=6
Mach=0.150000
Calibration=1:1
CalPts=490
TstPts=95
PortNumbering=AP Standard
Units=Torr C m/s kg/m^3 deg mm 
Theta[deg]	Phi[deg]	P1[Torr]	P2[Torr]	P3[Torr]	P4[Torr]	P5[Torr]	P6[Torr]	Pt[Torr]	Ps[Abs,Torr]	Ts[C]	
  0.000	  0.000	 10.97307	  4.67510	  4.65034	  4.70962	  4.51020	  0.23091	 10.96760	712.20001	 27.20	
  1.691	128.401	 10.96514	  4.31284	  4.98889	  5.14113	  4.06484	  0.21494	 10.96210	712.22998	 27.20	
  1.692	 77.194	 10.96448	  4.76297	  4.51841	  5.23003	  3.96349	  0.23052	 10.96186	712.16998	 27.20	
  1.699	 26.182	 10.97145	  5.18470	  4.13501	  4.94424	  4.24806	  0.24076	 10.96919	712.06000	 27.20	
  1.699	-26.182	 10.97101	  5.16495	  4.14735	  4.46422	  4.72027	  0.23624	 10.96729	712.00000	 27.20	
  1.692	-77.194	 10.96800	  4.79958	  4.51089	  4.14293	  5.07199	  0.21699	 10.96480	712.13000	 27.20	
  1.691	-128.401	 10.96400	  4.32469	  4.99108	  4.24808	  4.95240	  0.20567	 10.95912	712.14001	 27.20	
  1.700	180.000	 10.96924	  4.10651	  5.21579	  4.69055	  4.50325	  0.20584	 10.96605	712.07001	 27.20	
  3.400	180.000	 10.95183	  3.53827	  5.76342	  4.63104	  4.46779	  0.15297	 10.96575	712.04999	 27.10	
  3.388	-152.325	 10.95441	  3.68172	  5.60738	  4.13332	  4.98560	  0.15279	 10.96069	712.07001	 27.10	
  3.397	-124.529	 10.95326	  4.01131	  5.24809	  3.74319	  5.38915	  0.16217	 10.95855	712.07001	 27.10	
  3.399	-96.763	 10.96016	  4.51228	  4.72117	  3.55001	  5.62452	  0.17541	 10.96404	712.25000	 27.10	
  3.394	-69.283	 10.95920	  5.00506	  4.21623	  3.58516	  5.57913	  0.19178	 10.96798	712.21997	 27.10	
  3.400	-41.398	 10.95182	  5.49154	  3.76854	  3.88880	  5.21882	  0.20191	 10.96271	712.15997	 27.10	
  3.401	-14.021	 10.94994	  5.77999	  3.51646	  4.37427	  4.69085	  0.21971	 10.96752	712.25000	 27.10	
  3.401	 14.021	 10.93665	  5.76849	  3.51624	  4.93345	  4.13436	  0.22492	 10.95912	712.20001	 27.10	
  3.400	 41.398	 10.93895	  5.50628	  3.73358	  5.40508	  3.70221	  0.21687	 10.96221	712.12000	 27.10	
  3.394	 69.283	 10.93490	  5.01436	  4.17949	  5.74613	  3.40999	  0.20359	 10.96007	712.19000	 27.00	
  3.399	 96.763	 10.92955	  4.44317	  4.72751	  5.81801	  3.34243	  0.20070	 10.95700	712.28003	 27.00	
  3.397	124.529	 10.93918	  3.97934	  5.23959	  5.61603	  3.53687	  0.17629	 10.96315	712.17999	 27.00	
  3.388	152.325	 10.94409	  3.65583	  5.62062	  5.18311	  3.93492	  0.16766	 10.96397	712.27002	 27.00	
  5.099	161.165	 10.89235	  2.99797	  6.21730	  5.12715	  3.82862	  0.08287	 10.95925	712.21997	 27.00	
  5.109	142.013	 10.88080	  3.21725	  5.93513	  5.66012	  3.33224	  0.10571	 10.96086	712.33002	 27.00	
  5.095	123.033	 10.87763	  3.60538	  5.47849	  6.09357	  2.96348	  0.10669	 10.96216	712.22998	 27.00	
  5.105	104.191	 10.87245	  4.07392	  4.94656	  6.34884	  2.74672	  0.14173	 10.96418	712.32001	 27.00	
  5.093	 85.207	 10.86459	  4.64831	  4.36275	  6.39957	  2.69994	  0.13927	 10.95967	712.22998	 27.00	
  5.104	 66.290	 10.86081	  5.22444	  3.80545	  6.24888	  2.81350	  0.15531	 10.95744	712.16998	 26.90	
  5.094	 47.331	 10.86519	  5.74690	  3.34195	  5.90535	  3.10157	  0.16957	 10.95996	712.22998	 26.90	
  5.089	 28.397	 10.87011	  6.14314	  3.01933	  5.41409	  3.52162	  0.19817	 10.95665	712.20001	 26.90	
  5.096	  9.576	 10.87229	  6.34497	  2.86518	  4.84743	  4.05401	  0.18117	 10.95752	712.16998	 26.90	
  5.096	 -9.576	 10.89279	  6.36105	  2.87169	  4.27913	  4.62475	  0.17265	 10.97079	712.21997	 26.90	
  5.089	-28.397	 10.89396	  6.16011	  3.04523	  3.74701	  5.18977	  0.16210	 10.95977	712.15002	 26.90	
  5.094	-47.331	 10.90039	  5.77711	  3.36893	  3.30833	  5.68878	  0.14567	 10.95922	712.28003	 26.90	
  5.104	-66.290	 10.90391	  5.27125	  3.82416	  3.02821	  6.04719	  0.14146	 10.96135	712.27002	 26.90	
  5.093	-85.207	 10.91562	  4.72559	  4.36139	  2.93520	  6.17167	  0.11179	 10.96079	712.15002	 26.90	
  5.105	-104.191	 10.91751	  4.15635	  4.93281	  2.97905	  6.12359	  0.10190	 10.96025	712.10999	 26.90	
  5.095	-123.033	 10.90921	  3.63840	  5.48062	  3.18650	  5.86484	  0.09090	 10.94983	712.19000	 26.90	
  5.109	-142.013	 10.91126	  3.24774	  5.94020	  3.54083	  5.44713	  0.09353	 10.95484	712.15002	 26.80	
  5.099	-161.165	 10.90614	  3.01201	  6.21498	  4.01213	  4.92585	  0.07739	 10.95667	712.32001	 26.80	
  5.100	180.000	 10.89358	  2.92207	  6.32106	  4.54612	  4.37336	  0.08551	 10.95033	712.27002	 26.80	
  6.800	180.000	 10.80633	  2.27885	  6.86192	  4.43775	  4.25617	 -0.00487	 10.95087	712.23999	 26.80	
  6.796	-166.229	 10.82313	  2.35339	  6.79093	  3.89736	  4.82356	 -0.00662	 10.95931	712.25000	 26.80	
  6.808	-152.311	 10.82941	  2.52841	  6.57349	  3.38724	  5.38052	 -0.00257	 10.95636	712.25000	 26.80	
  6.795	-138.383	 10.83645	  2.81720	  6.22979	  2.96991	  5.87030	  0.00599	 10.96119	712.17999	 26.80	
  6.792	-124.591	 10.83104	  3.19962	  5.77546	  2.65267	  6.26468	  0.00601	 10.95070	712.21997	 26.80	
  6.787	-110.754	 10.83282	  3.67221	  5.24957	  2.41944	  6.55876	  0.01174	 10.95232	712.19000	 26.80	
  6.800	-96.985	 10.83217	  4.19966	  4.68857	  2.29602	  6.71609	  0.02341	 10.95860	712.29999	 26.80	
  6.800	-83.015	 10.82563	  4.76597	  4.11745	  2.28414	  6.71966	  0.02842	 10.95722	712.23999	 26.80	
  6.787	-69.246	 10.82376	  5.32519	  3.59408	  2.40192	  6.56712	  0.04469	 10.95798	712.28998	 26.70	
  6.792	-55.409	 10.81018	  5.84790	  3.11707	  2.62476	  6.27353	  0.06105	 10.95453	712.23999	 26.70	
  6.795	-41.617	 10.80354	  6.29851	  2.73212	  2.95675	  5.87227	  0.07436	 10.95772	712.21997	 26.70	
  6.808	-27.689	 10.79094	  6.64840	  2.43720	  3.38960	  5.37206	  0.08848	 10.95402	712.21002	 26.70	
  6.796	-13.771	 10.78381	  6.86251	  2.25981	  3.90847	  4.80630	  0.10503	 10.95522	712.21997	 26.70	
  6.800	  0.000	 10.77117	  6.92545	  2.19509	  4.46727	  4.23592	  0.11184	 10.95396	712.21997	 26.70	
  6.796	 13.771	 10.76812	  6.84305	  2.25304	  5.03030	  3.69571	  0.11621	 10.95927	712.21997	 26.70	
  6.808	 27.689	 10.75913	  6.61679	  2.41734	  5.59505	  3.17166	  0.11670	 10.95960	712.28003	 26.70	
  6.795	 41.617	 10.75060	  6.24818	  2.70677	  6.10037	  2.73247	  0.10346	 10.95638	712.21997	 26.70	
  6.792	 55.409	 10.74565	  5.78791	  3.09507	  6.49664	  2.40353	  0.08818	 10.95492	712.23999	 26.70	
  6.787	 69.246	 10.75296	  5.24945	  3.58419	  6.78553	  2.18126	  0.08009	 10.96189	712.29999	 26.70	
  6.800	 83.015	 10.74534	  4.67684	  4.10888	  6.93216	  2.05318	  0.06528	 10.95802	712.25000	 26.70	
  6.800	 96.985	 10.75454	  4.10158	  4.68665	  6.93236	  2.05247	  0.04244	 10.95603	712.31000	 26.60	
  6.787	110.754	 10.75888	  3.57424	  5.24604	  6.77436	  2.18237	  0.04968	 10.95725	712.28003	 26.60	
  6.792	124.591	 10.76745	  3.11563	  5.76913	  6.48561	  2.41499	  0.02900	 10.95209	712.28998	 26.60	
  6.795	138.383	 10.77787	  2.74534	  6.22028	  6.07659	  2.75554	  0.01282	 10.95456	712.28003	 26.60	
  6.808	152.311	 10.78493	  2.47745	  6.57398	  5.56666	  3.19871	 -0.00067	 10.95174	712.19000	 26.60	
  6.796	166.229	 10.80388	  2.32626	  6.79712	  5.00316	  3.71671	  0.00202	 10.96237	712.22998	 26.60	
  8.491	168.704	 10.66878	  1.64214	  7.32354	  4.88181	  3.55268	 -0.09894	 10.95317	712.20001	 26.60	
  8.502	157.493	 10.65825	  1.76528	  7.14460	  5.46905	  3.01592	 -0.10076	 10.95556	712.21002	 26.60	
  8.494	146.194	 10.64782	  1.98458	  6.83920	  6.01724	  2.53784	 -0.09750	 10.95597	712.20001	 26.60	
  8.495	135.039	 10.63540	  2.28993	  6.43938	  6.49795	  2.14019	 -0.07543	 10.95267	712.15997	 26.60	
  8.487	123.723	 10.62741	  2.68400	  5.95938	  6.91242	  1.80500	 -0.06488	 10.95481	712.28003	 26.60	
  8.492	112.575	 10.60557	  3.14277	  5.41999	  7.21678	  1.55821	 -0.06937	 10.95047	712.15002	 26.60	
  8.510	101.220	 10.59774	  3.67713	  4.83422	  7.41641	  1.40387	 -0.06586	 10.95271	712.12000	 26.60	
  8.500	 90.000	 10.58845	  4.24091	  4.25502	  7.48236	  1.35319	 -0.04791	 10.95110	712.13000	 26.50	
  8.510	 78.780	 10.58224	  4.82739	  3.68835	  7.42946	  1.39444	 -0.02864	 10.95054	712.26001	 26.50	
  8.492	 67.425	 10.58309	  5.41765	  3.15004	  7.23082	  1.55352	 -0.02434	 10.95371	712.22998	 26.50	
  8.487	 56.277	 10.58948	  5.96747	  2.68043	  6.93330	  1.79704	 -0.01373	 10.95449	712.22998	 26.50	
  8.495	 44.961	 10.59425	  6.45754	  2.27387	  6.52806	  2.12387	  0.00910	 10.95372	712.27002	 26.50	
  8.494	 33.806	 10.59787	  6.86526	  1.94859	  6.05451	  2.52127	  0.03065	 10.95377	712.20001	 26.50	
  8.502	 22.507	 10.60114	  7.18330	  1.70757	  5.50297	  2.99710	  0.03189	 10.95024	712.17999	 26.50	
  8.491	 11.296	 10.61661	  7.37964	  1.57539	  4.92137	  3.53769	  0.02927	 10.95591	712.21997	 26.50	
  8.500	  0.000	 10.62504	  7.45621	  1.52726	  4.33572	  4.10725	  0.02599	 10.95817	712.22998	 26.50	
  8.491	-11.296	 10.63696	  7.39782	  1.58645	  3.76041	  4.69411	  0.02621	 10.95687	712.20001	 26.50	
  8.502	-22.507	 10.64548	  7.22825	  1.72947	  3.21829	  5.27453	  0.00234	 10.95401	712.21997	 26.50	
  8.494	-33.806	 10.65456	  6.92312	  1.97518	  2.74652	  5.81758	 -0.01305	 10.95215	712.29999	 26.50	
  8.495	-44.961	 10.66486	  6.52644	  2.30136	  2.34909	  6.30124	 -0.02334	 10.95028	712.27002	 26.50	
  8.487	-56.277	 10.67754	  6.04870	  2.70566	  2.01856	  6.71226	 -0.03590	 10.95295	712.21997	 26.50	
  8.492	-67.425	 10.68448	  5.51601	  3.17143	  1.77645	  7.01862	 -0.05548	 10.95364	712.21997	 26.40	
  8.510	-78.780	 10.69076	  4.93234	  3.70427	  1.63090	  7.21618	 -0.07264	 10.95578	712.28003	 26.40	
  8.500	-90.000	 10.69819	  4.35258	  4.27264	  1.59299	  7.27551	 -0.07046	 10.95615	712.34998	 26.40	
  8.510	-101.220	 10.70675	  3.78673	  4.85056	  1.64098	  7.21613	 -0.07985	 10.95323	712.34003	 26.40	
  8.492	-112.575	 10.70602	  3.24851	  5.43698	  1.78807	  7.01373	 -0.09135	 10.95107	712.26001	 26.40	
  8.487	-123.723	 10.71120	  2.79210	  5.96856	  2.02024	  6.71642	 -0.09282	 10.95436	712.27002	 26.40	
  8.495	-135.039	 10.71372	  2.39329	  6.44460	  2.34209	  6.30702	 -0.08283	 10.95314	712.27002	 26.40	
  8.494	-146.194	 10.71057	  2.07385	  6.84400	  2.73203	  5.82964	 -0.08698	 10.95420	712.27002	 26.40	
  8.502	-157.493	 10.69904	  1.82413	  7.14284	  3.19726	  5.28686	 -0.09768	 10.95397	712.20001	 26.40	
  8.491	-168.704	 10.68734	  1.67377	  7.32359	  3.72904	  4.70664	 -0.10541	 10.95000	712.28003	 26.40	
  8.500	180.000	 10.68258	  1.60474	  7.39399	  4.29645	  4.12087	 -0.09871	 10.95485	712.22998	 26.40	
 10.200	180.000	 10.51517	  0.95487	  7.88188	  4.13904	  3.95996	 -0.20281	 10.95156	712.35999	 26.40	
 10.191	-170.497	 10.52361	  1.00830	  7.82632	  3.55886	  4.55256	 -0.20570	 10.95178	712.23999	 26.40	
 10.210	-161.034	 10.53381	  1.12832	  7.67679	  3.01056	  5.15280	 -0.20212	 10.95287	712.22998	 26.40	
 10.194	-151.526	 10.54450	  1.33329	  7.41583	  2.51506	  5.71768	 -0.18992	 10.95221	712.28003	 26.40	
 10.190	-142.105	 10.55263	  1.61431	  7.06586	  2.08539	  6.24460	 -0.17947	 10.95162	712.21997	 26.40	
 10.215	-132.646	 10.54829	  1.95251	  6.62735	  1.69714	  6.72813	 -0.18610	 10.94956	712.22998	 26.30	
 10.203	-123.092	 10.54448	  2.36591	  6.12294	  1.39380	  7.13263	 -0.19204	 10.94827	712.28998	 26.30	
 10.192	-113.678	 10.54149	  2.82969	  5.57660	  1.16619	  7.43960	 -0.19176	 10.94827	712.20001	 26.30	
 10.208	-104.249	 10.53927	  3.34609	  5.00313	  1.01118	  7.65555	 -0.17669	 10.95167	712.13000	 26.30	
 10.210	-94.801	 10.53539	  3.91082	  4.41248	  0.93166	  7.76497	 -0.16952	 10.95453	712.17999	 26.30	
 10.210	-85.199	 10.52776	  4.50306	  3.82041	  0.92649	  7.76413	 -0.16992	 10.95083	712.15997	 26.30	
 10.208	-75.751	 10.51656	  5.09625	  3.25799	  0.99927	  7.65435	 -0.17023	 10.94962	712.16998	 26.30	
 10.192	-66.322	 10.51150	  5.67465	  2.73435	  1.15763	  7.43754	 -0.15713	 10.95142	712.15002	 26.30	
 10.203	-56.908	 10.49514	  6.21723	  2.26035	  1.39055	  7.12595	 -0.14307	 10.94938	712.23999	 26.30	
 10.215	-47.354	 10.48762	  6.72083	  1.84498	  1.70629	  6.72406	 -0.13723	 10.95223	712.15002	 26.30	
 10.190	-37.895	 10.47708	  7.15071	  1.49997	  2.09928	  6.23598	 -0.12663	 10.94937	712.19000	 26.30	
 10.194	-28.474	 10.46301	  7.49808	  1.22642	  2.53694	  5.70806	 -0.11343	 10.94858	712.23999	 26.30	
 10.210	-18.966	 10.44525	  7.75262	  1.01973	  3.03749	  5.13102	 -0.09386	 10.94906	712.21997	 26.30	
 10.191	 -9.503	 10.44153	  7.89563	  0.90914	  3.60016	  4.53555	 -0.07363	 10.94923	712.23999	 26.30	
 10.200	  0.000	 10.42573	  7.94183	  0.86167	  4.17930	  3.93864	 -0.07155	 10.94647	712.12000	 26.30	
 10.191	  9.503	 10.41949	  7.87562	  0.90757	  4.77451	  3.36701	 -0.06711	 10.94787	712.27002	 26.30	
 10.210	 18.966	 10.41124	  7.71400	  1.01594	  5.37117	  2.81613	 -0.06473	 10.95303	712.21997	 26.30	
 10.194	 28.474	 10.39975	  7.43148	  1.21577	  5.94195	  2.31289	 -0.05932	 10.94984	712.15997	 26.20	
 10.190	 37.895	 10.40102	  7.07614	  1.49030	  6.46712	  1.88357	 -0.06741	 10.95619	712.26001	 26.20	
 10.215	 47.354	 10.39188	  6.62547	  1.83587	  6.94554	  1.49127	 -0.09990	 10.95394	712.17999	 26.20	
 10.203	 56.908	 10.38285	  6.10790	  2.24900	  7.34687	  1.17864	 -0.12479	 10.95214	712.31000	 26.20	
 10.192	 66.322	 10.38893	  5.55405	  2.72715	  7.65280	  0.95045	 -0.13738	 10.95752	712.29999	 26.20	
 10.208	 75.751	 10.38740	  4.96816	  3.24807	  7.86464	  0.78496	 -0.13866	 10.95646	712.28003	 26.20	
 10.210	 85.199	 10.39184	  4.37324	  3.81055	  7.96765	  0.70976	 -0.14522	 10.95354	712.23999	 26.20	
 10.210	 94.801	 10.39826	  3.78397	  4.39689	  7.96119	  0.71181	 -0.16425	 10.95148	712.27002	 26.20	
 10.208	104.249	 10.40493	  3.22563	  4.98816	  7.84465	  0.79771	 -0.17552	 10.94944	712.31000	 26.20	
 10.192	113.678	 10.42309	  2.71294	  5.56927	  7.63071	  0.96342	 -0.17685	 10.95415	712.20001	 26.20	
 10.203	123.092	 10.42638	  2.24744	  6.11130	  7.31071	  1.19291	 -0.16891	 10.94455	712.28003	 26.20	
 10.215	132.646	 10.44295	  1.83826	  6.61858	  6.90482	  1.50982	 -0.17621	 10.94849	712.33002	 26.20	
 10.190	142.105	 10.45710	  1.51062	  7.05396	  6.41758	  1.90121	 -0.19200	 10.94747	712.31000	 26.20	
 10.194	151.526	 10.46641	  1.25079	  7.40784	  5.89275	  2.33319	 -0.19875	 10.94691	712.19000	 26.20	
 10.210	161.034	 10.48404	  1.07562	  7.67413	  5.32168	  2.83377	 -0.20126	 10.95081	712.26001	 26.20	
 10.191	170.497	 10.50428	  0.98129	  7.83043	  4.72637	  3.39056	 -0.19550	 10.95401	712.25000	 26.10	
 11.899	171.783	 10.29320	  0.33589	  8.29556	  4.53609	  3.20551	 -0.28960	 10.95047	712.19000	 26.10	
 11.890	163.610	 10.27898	  0.42122	  8.15375	  5.13594	  2.65159	 -0.29664	 10.94671	712.28003	 26.10	
 11.889	155.445	 10.26669	  0.56764	  7.92132	  5.72030	  2.13624	 -0.30434	 10.94779	712.23999	 26.10	
 11.909	147.299	 10.24354	  0.77093	  7.60647	  6.27212	  1.67424	 -0.30329	 10.94276	712.34998	 26.10	
 11.902	139.148	 10.23454	  1.05278	  7.21824	  6.80035	  1.26027	 -0.29704	 10.94779	712.40002	 26.10	
 11.894	130.867	 10.22250	  1.40087	  6.75171	  7.27877	  0.89983	 -0.28642	 10.94963	712.34998	 26.10	
 11.897	122.732	 10.21742	  1.80292	  6.24156	  7.68110	  0.60906	 -0.28026	 10.95978	712.38000	 26.10	
 11.903	114.597	 10.19269	  2.25069	  5.68805	  7.99179	  0.37763	 -0.28198	 10.94864	712.38000	 26.10	
 11.893	106.346	 10.18320	  2.76476	  5.10449	  8.22706	  0.21582	 -0.28778	 10.94680	712.40002	 26.10	
 11.892	 98.155	 10.17272	  3.31439	  4.50312	  8.37351	  0.11492	 -0.28526	 10.94990	712.47998	 26.10	
 11.900	 90.000	 10.16252	  3.88402	  3.91571	  8.43196	  0.07375	 -0.27280	 10.94934	712.44000	 26.10	
 11.892	 81.845	 10.15064	  4.46671	  3.34551	  8.38230	  0.10491	 -0.25564	 10.94425	712.29999	 26.10	
 11.893	 73.654	 10.14953	  5.07465	  2.79037	  8.25086	  0.20006	 -0.25569	 10.95328	712.29999	 26.10	
 11.903	 65.403	 10.14725	  5.66509	  2.27551	  8.02128	  0.36349	 -0.25421	 10.94916	712.20001	 26.10	
 11.897	 57.268	 10.14584	  6.22184	  1.81085	  7.71079	  0.58820	 -0.24510	 10.94896	712.21997	 26.10	
 11.894	 49.133	 10.14978	  6.74305	  1.40278	  7.32244	  0.87634	 -0.21927	 10.95107	712.35999	 26.10	
 11.902	 40.852	 10.15435	  7.22548	  1.03935	  6.85348	  1.23952	 -0.18499	 10.94854	712.22998	 26.10	
 11.909	 32.701	 10.16497	  7.62960	  0.74933	  6.33845	  1.64757	 -0.16701	 10.95269	712.17999	 26.00	
 11.889	 24.555	 10.17126	  7.94738	  0.52338	  5.78063	  2.11083	 -0.16439	 10.95251	712.15002	 26.00	
 11.890	 16.390	 10.18416	  8.19061	  0.36032	  5.20151	  2.61957	 -0.17122	 10.95202	712.22998	 26.00	
 11.899	  8.217	 10.18918	  8.34066	  0.26063	  4.59227	  3.17848	 -0.16990	 10.94685	712.17999	 26.00	
 11.900	  0.000	 10.20147	  8.39988	  0.23217	  3.99788	  3.75532	 -0.17117	 10.95120	712.22998	 26.00	
 11.899	 -8.217	 10.22021	  8.36668	  0.26715	  3.41194	  4.36011	 -0.17552	 10.95639	712.19000	 26.00	
 11.890	-16.390	 10.23077	  8.22876	  0.37049	  2.85697	  4.95652	 -0.19025	 10.95136	712.16998	 26.00	
 11.889	-24.555	 10.23265	  8.00860	  0.52862	  2.34142	  5.53696	 -0.21143	 10.94136	712.19000	 26.00	
 11.909	-32.701	 10.24947	  7.71455	  0.75069	  1.86743	  6.10371	 -0.22605	 10.95449	712.15997	 26.00	
 11.902	-40.852	 10.25899	  7.32638	  1.04548	  1.45003	  6.62642	 -0.23161	 10.94729	712.21002	 26.00	
 11.894	-49.133	 10.27090	  6.86194	  1.40987	  1.08378	  7.10337	 -0.23698	 10.95060	712.22998	 26.00	
 11.897	-57.268	 10.28689	  6.35710	  1.82674	  0.80441	  7.49461	 -0.23920	 10.95035	712.29999	 26.00	
 11.903	-65.403	 10.29654	  5.81337	  2.28904	  0.56863	  7.81597	 -0.24566	 10.95377	712.16998	 26.00	
 11.893	-73.654	 10.30674	  5.22682	  2.80603	  0.39961	  8.05288	 -0.25426	 10.95119	712.27002	 26.00	
 11.892	-81.845	 10.31369	  4.62080	  3.36217	  0.30248	  8.19630	 -0.25594	 10.94661	712.20001	 26.00	
 11.900	-90.000	 10.31956	  4.03256	  3.93428	  0.27306	  8.24365	 -0.25124	 10.94859	712.14001	 26.00	
 11.892	-98.155	 10.33286	  3.46040	  4.52379	  0.30794	  8.20032	 -0.24540	 10.95252	712.15002	 26.00	
 11.893	-106.346	 10.33917	  2.90391	  5.12389	  0.40536	  8.05858	 -0.25365	 10.95332	712.21002	 26.00	
 11.903	-114.597	 10.34167	  2.38908	  5.70661	  0.56499	  7.82342	 -0.26298	 10.95033	712.21997	 26.00	
 11.897	-122.732	 10.35094	  1.93181	  6.25911	  0.79275	  7.50401	 -0.27024	 10.95201	712.38000	 26.00	
 11.894	-130.867	 10.34895	  1.51840	  6.76987	  1.07062	  7.11276	 -0.26981	 10.95191	712.22998	 25.90	
 11.902	-139.148	 10.34658	  1.16181	  7.23825	  1.42710	  6.63747	 -0.26288	 10.94668	712.16998	 25.90	
 11.909	-147.299	 10.34484	  0.86956	  7.62831	  1.83971	  6.12138	 -0.26615	 10.95116	712.27002	 25.90	
 11.889	-155.445	 10.34082	  0.64293	  7.93900	  2.30950	  5.56082	 -0.28258	 10.95284	712.23999	 25.90	
 11.890	-163.610	 10.32735	  0.47175	  8.15885	  2.81299	  4.97994	 -0.29515	 10.94678	712.28998	 25.90	
 11.899	-171.783	 10.31538	  0.36645	  8.29569	  3.36702	  4.37875	 -0.30164	 10.94699	712.27002	 25.90	
 11.900	180.000	 10.30549	  0.31858	  8.34443	  3.94747	  3.77950	 -0.29479	 10.94830	712.31000	 25.90	
 13.600	180.000	 10.06395	 -0.31271	  8.78041	  3.72955	  3.57124	 -0.37422	 10.95424	712.38000	 25.90	
 13.608	-172.853	 10.07331	 -0.28348	  8.74441	  3.15657	  4.15918	 -0.38117	 10.94800	712.33002	 25.90	
 13.611	-165.583	 10.08056	 -0.18993	  8.61971	  2.59064	  4.77012	 -0.36752	 10.94839	712.29999	 25.90	
 13.601	-158.353	 10.09046	 -0.03759	  8.41124	  2.07846	  5.35863	 -0.35456	 10.94322	712.29999	 25.90	
 13.609	-151.210	 10.10658	  0.15738	  8.14042	  1.60415	  5.93863	 -0.33879	 10.94856	712.28003	 25.90	
 13.611	-143.999	 10.11229	  0.41447	  7.77724	  1.16576	  6.49709	 -0.32108	 10.95212	712.23999	 25.90	
 13.601	-136.825	 10.11191	  0.71610	  7.36156	  0.78336	  6.99963	 -0.31602	 10.94910	712.40997	 25.90	
 13.596	-129.640	 10.11606	  1.07129	  6.88917	  0.46478	  7.45005	 -0.31381	 10.95503	712.39001	 25.90	
