FileType=PCF
NHL=14
Date=03/12/19	10:59:29
Facility=APL
Serial=16071-11
Customer=NASA
NP=6
Mach=0.300000
Calibration=1:1
CalPts=490
TstPts=95
PortNumbering=AP Standard
Units=Torr C m/s kg/m^3 deg mm 
Theta[deg]	Phi[deg]	P1[Torr]	P2[Torr]	P3[Torr]	P4[Torr]	P5[Torr]	P6[Torr]	Pt[Torr]	Ps[Abs,Torr]	Ts[C]	
  0.000	  0.000	 42.63375	 18.40357	 18.19898	 18.57765	 17.33550	  0.88101	 42.54848	712.28998	 34.80	
  1.691	128.401	 42.60826	 16.82773	 19.58920	 20.32523	 15.46163	  0.83618	 42.53402	712.35999	 34.80	
  1.692	 77.194	 42.60020	 18.77846	 17.59879	 20.81693	 14.88302	  0.88747	 42.52522	712.29999	 34.80	
  1.699	 26.182	 42.58644	 20.43811	 15.99788	 19.56292	 16.18487	  0.91448	 42.52152	712.26001	 34.70	
  1.699	-26.182	 42.61156	 20.50897	 16.04213	 17.51179	 18.29754	  0.89481	 42.53589	712.28998	 34.70	
  1.692	-77.194	 42.60892	 18.90852	 17.63621	 16.18257	 19.62677	  0.83328	 42.53311	712.16998	 34.70	
  1.691	-128.401	 42.61626	 16.91590	 19.62427	 16.62634	 19.14742	  0.79134	 42.53884	712.26001	 34.60	
  1.700	180.000	 42.61760	 15.98518	 20.53167	 18.46371	 17.26140	  0.79324	 42.54277	712.25000	 34.60	
  3.400	180.000	 42.52351	 13.43246	 22.75861	 18.22112	 17.04913	  0.62482	 42.51206	712.23999	 34.60	
  3.388	-152.325	 42.54209	 14.02241	 22.21234	 16.07901	 19.28028	  0.63092	 42.50844	712.28998	 34.50	
  3.397	-124.529	 42.57129	 15.51460	 20.69190	 14.40448	 21.11323	  0.65670	 42.53018	712.28003	 34.50	
  3.399	-96.763	 42.54469	 17.65509	 18.52346	 13.60987	 21.91454	  0.69172	 42.50042	712.21997	 34.50	
  3.394	-69.283	 42.54808	 19.90098	 16.34805	 13.91990	 21.62826	  0.74416	 42.50367	712.29999	 34.50	
  3.400	-41.398	 42.54044	 21.82863	 14.49892	 15.17519	 20.28522	  0.80728	 42.51164	712.22998	 34.40	
  3.401	-14.021	 42.51156	 22.87171	 13.45304	 17.22075	 18.23564	  0.86124	 42.52103	712.16998	 34.40	
  3.401	 14.021	 42.45748	 22.80502	 13.38760	 19.48332	 15.85415	  0.87541	 42.48811	712.09003	 34.40	
  3.400	 41.398	 42.44250	 21.65779	 14.39715	 21.50842	 13.78908	  0.86936	 42.48726	712.08002	 34.30	
  3.394	 69.283	 42.41286	 19.68093	 16.21310	 22.82554	 12.51060	  0.83106	 42.47247	712.28998	 34.30	
  3.399	 96.763	 42.40847	 17.43882	 18.42353	 23.08241	 12.25710	  0.77170	 42.47105	712.27002	 34.30	
  3.397	124.529	 42.43203	 15.36345	 20.58499	 22.21579	 13.09695	  0.71175	 42.45793	712.28003	 34.20	
  3.388	152.325	 42.45393	 13.84723	 22.15499	 20.42522	 14.84470	  0.64972	 42.46743	712.33002	 34.20	
  5.099	161.165	 42.23917	 11.28209	 24.45482	 20.16318	 14.33615	  0.41040	 42.45877	712.33002	 34.20	
  5.109	142.013	 42.20617	 12.20623	 23.28580	 22.34718	 12.27888	  0.45209	 42.47402	712.27002	 34.20	
  5.095	123.033	 42.15747	 13.71415	 21.51799	 23.99962	 10.94362	  0.51289	 42.44614	712.22998	 34.10	
  5.105	104.191	 42.10271	 15.85658	 19.29956	 25.00655	 10.05816	  0.54568	 42.43581	712.22998	 34.10	
  5.093	 85.207	 42.11959	 18.21336	 16.96746	 25.25115	  9.89424	  0.62079	 42.47258	712.21002	 34.10	
  5.104	 66.290	 42.12871	 20.53948	 14.75150	 24.68752	 10.40051	  0.67357	 42.48305	712.16998	 34.10	
  5.094	 47.331	 42.10326	 22.60769	 12.87834	 23.34033	 11.54415	  0.72242	 42.44479	712.25000	 34.00	
  5.089	 28.397	 42.13549	 24.10077	 11.61376	 21.42887	 13.24365	  0.75362	 42.44028	712.27002	 34.00	
  5.096	  9.576	 42.17854	 24.94126	 10.92630	 19.22354	 15.47365	  0.74300	 42.45345	712.23999	 34.00	
  5.096	 -9.576	 42.22354	 25.01561	 10.95109	 16.92978	 17.87971	  0.71968	 42.45731	712.29999	 34.00	
  5.089	-28.397	 42.27047	 24.28082	 11.67282	 14.73835	 20.20370	  0.67969	 42.46605	712.28003	 33.90	
  5.094	-47.331	 42.28053	 22.84083	 13.00025	 12.81254	 22.13156	  0.62072	 42.45120	712.21997	 33.90	
  5.104	-66.290	 42.30167	 20.82210	 14.84305	 11.60813	 23.46452	  0.56876	 42.44715	712.28003	 33.90	
  5.093	-85.207	 42.32517	 18.57327	 17.02751	 11.05767	 24.04798	  0.51995	 42.44677	712.20001	 33.80	
  5.105	-104.191	 42.35638	 16.23347	 19.41007	 11.20664	 23.86232	  0.46982	 42.45481	712.12000	 33.80	
  5.095	-123.033	 42.33094	 14.03119	 21.53965	 12.11302	 22.85501	  0.43234	 42.43454	712.14001	 33.80	
  5.109	-142.013	 42.30844	 12.33295	 23.30719	 13.59654	 21.20418	  0.41643	 42.42992	712.10999	 33.80	
  5.099	-161.165	 42.27525	 11.31424	 24.45937	 15.58913	 18.97275	  0.39872	 42.41273	712.03998	 33.70	
  5.100	180.000	 42.23532	 10.99188	 24.84326	 17.83755	 16.70927	  0.39462	 42.41800	712.19000	 33.70	
  6.800	180.000	 41.90568	  8.62459	 26.86117	 17.38299	 16.26442	  0.11455	 42.42227	712.17999	 33.70	
  6.796	-166.229	 41.95996	  8.88800	 26.60090	 15.18182	 18.58381	  0.10201	 42.44197	712.06000	 33.70	
  6.808	-152.311	 41.99372	  9.59668	 25.76392	 13.07601	 20.82731	  0.11838	 42.42741	712.17999	 33.60	
  6.795	-138.383	 42.01310	 10.82750	 24.40977	 11.37359	 22.75540	  0.14382	 42.41901	712.20001	 33.60	
  6.792	-124.591	 42.00879	 12.31838	 22.65121	 10.03987	 24.29462	  0.06162	 42.39799	712.32001	 33.60	
  6.787	-110.754	 41.99743	 14.24512	 20.60038	  9.15889	 25.39814	  0.16549	 42.40239	712.15997	 33.60	
  6.800	-96.985	 42.00602	 16.46240	 18.38165	  8.66983	 26.01517	  0.19135	 42.42088	712.10999	 33.60	
  6.800	-83.015	 41.97913	 18.74834	 16.09050	  8.67931	 26.00392	  0.22054	 42.41962	712.20001	 33.50	
  6.787	-69.246	 41.96792	 20.96469	 13.96246	  9.16223	 25.43068	  0.27294	 42.42209	712.21002	 33.50	
  6.792	-55.409	 41.91724	 23.05766	 12.08231	 10.06142	 24.34118	  0.33857	 42.40637	712.19000	 33.50	
  6.795	-41.617	 41.87646	 24.74920	 10.53993	 11.43640	 22.78944	  0.38527	 42.39537	712.10999	 33.50	
  6.808	-27.689	 41.81821	 26.01730	  9.35210	 13.28639	 20.81464	  0.43026	 42.39096	712.17999	 33.40	
  6.796	-13.771	 41.79159	 26.79452	  8.64879	 15.39822	 18.54829	  0.39917	 42.40640	712.37000	 33.40	
  6.800	  0.000	 41.72604	 27.05263	  8.33799	 17.66305	 16.12930	  0.52416	 42.39859	712.26001	 33.40	
  6.796	 13.771	 41.70382	 26.68287	  8.62349	 19.92406	 13.88836	  0.40856	 42.40328	712.33002	 33.40	
  6.808	 27.689	 41.66901	 25.82168	  9.26100	 22.09701	 11.91196	  0.52703	 42.41866	712.34998	 33.40	
  6.795	 41.617	 41.62830	 24.45656	 10.38561	 23.99254	 10.23473	  0.36619	 42.40514	712.17999	 33.40	
  6.792	 55.409	 41.60364	 22.68642	 11.90094	 25.51741	  8.90868	  0.46056	 42.39143	712.27002	 33.40	
  6.787	 69.246	 41.61348	 20.58514	 13.80434	 26.62696	  7.98731	  0.29114	 42.41404	712.27002	 33.40	
  6.800	 83.015	 41.59354	 18.28044	 15.95082	 27.22545	  7.48280	  0.32148	 42.40127	712.37000	 33.30	
  6.800	 96.985	 41.60078	 15.95154	 18.27626	 27.18099	  7.53635	  0.26407	 42.38339	712.35999	 33.30	
  6.787	110.754	 41.66387	 13.80012	 20.51749	 26.56365	  8.03480	  0.26562	 42.42086	712.26001	 33.30	
  6.792	124.591	 41.69328	 11.95796	 22.57906	 25.40355	  8.90188	  0.13592	 42.39589	712.29999	 33.30	
  6.795	138.383	 41.72773	 10.53829	 24.30701	 23.88081	 10.17858	  0.18025	 42.38559	712.34003	 33.30	
  6.808	152.311	 41.79624	  9.46527	 25.69382	 21.94042	 11.92786	  0.14099	 42.40927	712.27002	 33.30	
  6.796	166.229	 41.84919	  8.83715	 26.54937	 19.64494	 13.89174	  0.05083	 42.41140	712.28003	 33.30	
  8.491	168.704	 41.36155	  6.44363	 28.52486	 19.20382	 13.33795	 -0.29270	 42.40769	712.31000	 33.20	
  8.502	157.493	 41.27800	  6.87593	 27.79475	 21.53793	 11.38465	 -0.40530	 42.38900	712.29999	 33.20	
  8.494	146.194	 41.24996	  7.75609	 26.61396	 23.67317	  9.46935	 -0.16622	 42.40602	712.38000	 33.20	
  8.495	135.039	 41.20284	  8.94941	 25.12732	 25.42292	  7.92872	 -0.13129	 42.40841	712.29999	 33.20	
  8.487	123.723	 41.13803	 10.46651	 23.25164	 27.02098	  6.66953	 -0.31316	 42.41037	712.26001	 33.20	
  8.492	112.575	 41.07273	 12.17884	 21.18390	 28.20480	  5.79796	 -0.24507	 42.39983	712.35999	 33.20	
  8.510	101.220	 41.01175	 14.24274	 18.86954	 28.99808	  5.20788	 -0.08759	 42.40395	712.40002	 33.20	
  8.500	 90.000	 40.98610	 16.55068	 16.55607	 29.27299	  5.01643	 -0.22812	 42.39124	712.29999	 33.10	
  8.510	 78.780	 40.96297	 18.89899	 14.26948	 29.06669	  5.13745	 -0.16466	 42.40348	712.37000	 33.10	
  8.492	 67.425	 40.96485	 21.25506	 12.13475	 28.30705	  5.68743	 -0.13499	 42.40408	712.28998	 33.10	
  8.487	 56.277	 40.96568	 23.33913	 10.30812	 27.14389	  6.65982	 -0.09695	 42.38370	712.32001	 33.10	
  8.495	 44.961	 41.01891	 25.21353	  8.73254	 25.59356	  7.94720	 -0.01738	 42.41468	712.34998	 33.10	
  8.494	 33.806	 41.02078	 26.72515	  7.48077	 23.79703	  9.45833	  0.04686	 42.38771	712.38000	 33.10	
  8.502	 22.507	 41.04815	 27.94973	  6.54822	 21.70996	 11.29844	  0.05951	 42.38103	712.35999	 33.00	
  8.491	 11.296	 41.10077	 28.72660	  6.05961	 19.44242	 13.37470	  0.05416	 42.38590	712.37000	 33.00	
  8.500	  0.000	 41.15283	 29.06163	  5.88872	 17.13967	 15.53538	  0.06206	 42.40341	712.35999	 33.00	
  8.491	-11.296	 41.20381	 28.84198	  6.12050	 14.82740	 18.01063	  0.04228	 42.38958	712.34998	 33.00	
  8.502	-22.507	 41.26091	 28.17348	  6.67254	 12.64845	 20.36680	 -0.01787	 42.39506	712.37000	 33.00	
  8.494	-33.806	 41.29479	 27.00608	  7.60250	 10.74277	 22.49208	 -0.07008	 42.37496	712.32001	 33.00	
  8.495	-44.961	 41.36444	 25.54626	  8.87859	  9.20609	 24.34846	 -0.10572	 42.38614	712.37000	 33.00	
  8.487	-56.277	 41.38917	 23.75767	 10.46764	  7.89411	 25.91080	 -0.06019	 42.36966	712.28998	 33.00	
  8.492	-67.425	 41.42379	 21.72031	 12.29095	  6.98868	 27.06781	 -0.08749	 42.39209	712.40002	 32.90	
  8.510	-78.780	 41.44902	 19.46513	 14.37321	  6.40752	 27.85174	 -0.15139	 42.38344	712.50000	 32.90	
  8.500	-90.000	 41.46384	 17.15899	 16.63735	  6.21529	 28.07080	 -0.14519	 42.37290	712.42999	 32.90	
  8.510	-101.220	 41.47640	 14.84983	 19.00459	  6.37612	 27.83601	 -0.30506	 42.36081	712.46002	 32.90	
  8.492	-112.575	 41.52363	 12.69079	 21.31394	  6.99473	 27.04832	 -0.22353	 42.37872	712.40997	 32.90	
  8.487	-123.723	 41.51205	 10.90489	 23.34850	  7.84100	 25.84553	 -0.33195	 42.35219	712.45001	 32.90	
  8.495	-135.039	 41.52622	  9.34326	 25.20706	  9.07032	 24.34384	 -0.24514	 42.37351	712.29999	 32.90	
  8.494	-146.194	 41.48903	  8.05007	 26.68224	 10.57381	 22.49204	 -0.20856	 42.35663	712.34003	 32.90	
  8.502	-157.493	 41.45527	  7.01233	 27.84115	 12.41869	 20.39323	 -0.38903	 42.37558	712.34998	 32.90	
  8.491	-168.704	 41.40798	  6.45431	 28.54765	 14.56015	 18.08187	 -0.38622	 42.35528	712.32001	 32.80	
  8.500	180.000	 41.37280	  6.26536	 28.78309	 16.87857	 15.55667	 -0.23493	 42.37976	712.34998	 32.80	
 10.200	180.000	 40.73304	  3.79233	 30.63527	 16.19251	 14.96379	 -0.68680	 42.36383	712.28998	 32.80	
 10.191	-170.497	 40.78016	  3.98874	 30.42280	 13.88806	 17.42332	 -0.82015	 42.35507	712.34003	 32.80	
 10.210	-161.034	 40.81038	  4.43653	 29.84188	 11.68302	 19.85864	 -0.80895	 42.34887	712.34003	 32.80	
 10.194	-151.526	 40.86796	  5.31590	 28.81708	  9.83161	 22.09288	 -0.75825	 42.35125	712.27002	 32.80	
 10.190	-142.105	 40.89672	  6.41106	 27.47986	  8.17663	 24.08267	 -0.71133	 42.36116	712.27002	 32.80	
 10.215	-132.646	 40.89091	  7.71449	 25.83118	  6.69034	 25.81852	 -0.73163	 42.34601	712.28998	 32.80	
 10.203	-123.092	 40.90599	  9.34111	 23.91113	  5.52676	 27.43010	 -0.75962	 42.36351	712.20001	 32.70	
 10.192	-113.678	 40.86170	 11.12356	 21.81889	  4.69563	 28.61150	 -0.73772	 42.33451	712.31000	 32.70	
 10.208	-104.249	 40.87281	 13.13097	 19.56791	  4.12477	 29.49654	 -0.69144	 42.36775	712.31000	 32.70	
 10.210	-94.801	 40.85906	 15.39818	 17.20907	  3.85371	 29.91641	 -0.68115	 42.37248	712.39001	 32.70	
 10.210	-85.199	 40.83093	 17.77709	 14.85286	  3.86302	 29.91918	 -0.69001	 42.36638	712.34998	 32.70	
 10.208	-75.751	 40.77303	 20.08933	 12.63018	  4.13707	 29.48523	 -0.66985	 42.34767	712.42999	 32.70	
 10.192	-66.322	 40.72925	 22.32384	 10.58542	  4.72879	 28.64338	 -0.64650	 42.33984	712.44000	 32.70	
 10.203	-56.908	 40.71090	 24.39972	  8.78496	  5.60356	 27.44488	 -0.54476	 42.36420	712.31000	 32.70	
 10.215	-47.354	 40.65707	 26.23251	  7.18641	  6.81495	 25.87380	 -0.55674	 42.36167	712.40997	 32.60	
 10.190	-37.895	 40.61583	 27.87392	  5.84970	  8.34843	 24.02585	 -0.52631	 42.36284	712.40997	 32.60	
 10.194	-28.474	 40.56978	 29.20550	  4.86554	 10.01090	 22.00674	 -0.48491	 42.36382	712.42999	 32.60	
 10.210	-18.966	 40.49174	 30.17295	  4.08774	 11.89386	 19.79734	 -0.41231	 42.35474	712.41998	 32.60	
 10.191	 -9.503	 40.45365	 30.72771	  3.61892	 14.13200	 17.37876	 -0.32486	 42.36137	712.40997	 32.60	
 10.200	  0.000	 40.38718	 30.89032	  3.40225	 16.46886	 14.94185	 -0.31277	 42.34630	712.46997	 32.60	
 10.191	  9.503	 40.33789	 30.62478	  3.51655	 18.82778	 12.80194	 -0.32270	 42.35902	712.53003	 32.60	
 10.210	 18.966	 40.28348	 29.97850	  3.92374	 21.16183	 10.62607	 -0.32925	 42.35988	712.40997	 32.60	
 10.194	 28.474	 40.24897	 28.89129	  4.63480	 23.33635	  8.68784	 -0.32315	 42.36357	712.44000	 32.60	
 10.190	 37.895	 40.20168	 27.48890	  5.64997	 25.28219	  6.97167	 -0.35200	 42.35411	712.41998	 32.60	
 10.215	 47.354	 40.17371	 25.80478	  7.00787	 27.13323	  5.45556	 -0.45204	 42.35542	712.40002	 32.60	
 10.203	 56.908	 40.15818	 23.86129	  8.66347	 28.66115	  4.26031	 -0.55327	 42.36766	712.41998	 32.60	
 10.192	 66.322	 40.14260	 21.73813	 10.46243	 29.83625	  3.33629	 -0.57517	 42.35813	712.44000	 32.50	
 10.208	 75.751	 40.13189	 19.42501	 12.49232	 30.65016	  2.74021	 -0.58430	 42.35163	712.44000	 32.50	
 10.210	 85.199	 40.15899	 17.07387	 14.71717	 31.04167	  2.46545	 -0.63201	 42.35250	712.44000	 32.50	
 10.210	 94.801	 40.19228	 14.67607	 17.04005	 31.00969	  2.47578	 -0.70980	 42.35179	712.39001	 32.50	
 10.208	104.249	 40.22675	 12.50176	 19.38093	 30.57132	  2.78178	 -0.49382	 42.34885	712.42999	 32.50	
 10.192	113.678	 40.30145	 10.58328	 21.66265	 29.73981	  3.38720	 -0.74154	 42.35877	712.45001	 32.50	
 10.203	123.092	 40.34925	  8.76796	 23.75628	 28.55390	  4.21566	 -0.74017	 42.36607	712.39001	 32.50	
 10.215	132.646	 40.38610	  7.15965	 25.68357	 26.95610	  5.47404	 -0.76039	 42.32775	712.35999	 32.50	
 10.190	142.105	 40.49033	  5.91106	 27.39381	 25.11418	  7.05081	 -0.79205	 42.36303	712.35999	 32.50	
 10.194	151.526	 40.53371	  4.94862	 28.73907	 23.14919	  8.74618	 -0.81967	 42.35766	712.34998	 32.50	
 10.210	161.034	 40.59261	  4.29382	 29.77350	 20.92747	 10.69527	 -0.81672	 42.35501	712.37000	 32.50	
 10.191	170.497	 40.68605	  3.96919	 30.40768	 18.61651	 12.85983	 -0.80668	 42.37309	712.37000	 32.50	
 11.899	171.783	 39.88799	  1.41424	 32.17274	 17.80618	 12.21406	 -1.14491	 42.37112	712.35999	 32.40	
 11.890	163.610	 39.82425	  1.70960	 31.62083	 20.18012	 10.06123	 -1.14536	 42.36533	712.34998	 32.40	
 11.889	155.445	 39.76208	  2.25515	 30.72962	 22.45986	  8.03863	 -1.21064	 42.38021	712.39001	 32.40	
 11.909	147.299	 39.67156	  2.97589	 29.52599	 24.49511	  6.17328	 -1.22339	 42.37012	712.42999	 32.40	
 11.902	139.148	 39.59090	  4.01461	 27.98565	 26.49566	  4.48193	 -1.19057	 42.34557	712.34003	 32.40	
 11.894	130.867	 39.54323	  5.38326	 26.19575	 28.37262	  3.02413	 -1.14783	 42.36924	712.44000	 32.40	
 11.897	122.732	 39.49122	  7.03671	 24.21802	 29.90319	  1.88014	 -1.14473	 42.37569	712.32001	 32.40	
 11.903	114.597	 39.43713	  8.85498	 22.10663	 31.12491	  1.02014	 -1.17041	 42.37270	712.45001	 32.30	
 11.893	106.346	 39.36202	 10.82704	 19.79358	 32.00151	  0.37086	 -1.18680	 42.35226	712.41998	 32.30	
 11.892	 98.155	 39.31752	 12.90452	 17.42336	 32.70255	 -0.03155	 -1.13701	 42.35934	712.33002	 32.30	
 11.900	 90.000	 39.28267	 15.15518	 15.10578	 32.88047	 -0.16900	 -1.09064	 42.37151	712.32001	 32.30	
 11.892	 81.845	 39.24684	 17.48557	 12.85508	 32.62157	  0.03740	 -1.04550	 42.36309	712.37000	 32.30	
 11.893	 73.654	 39.21277	 19.85566	 10.70656	 32.08093	  0.44085	 -1.02229	 42.34962	712.33002	 32.30	
 11.903	 65.403	 39.21029	 22.16158	  8.75649	 31.21763	  1.06974	 -1.02440	 42.33574	712.40997	 32.30	
 11.897	 57.268	 39.20618	 24.27119	  6.97413	 30.00914	  1.90768	 -1.01261	 42.33290	712.46997	 32.30	
 11.894	 49.133	 39.23722	 26.25667	  5.36039	 28.50145	  3.04158	 -0.91481	 42.36037	712.37000	 32.30	
 11.902	 40.852	 39.24109	 28.05326	  3.91331	 26.67539	  4.42468	 -0.77293	 42.33669	712.37000	 32.30	
 11.909	 32.701	 39.28553	 29.61163	  2.75617	 24.71517	  6.05686	 -0.73596	 42.35070	712.31000	 32.30	
 11.889	 24.555	 39.36076	 30.87759	  1.97241	 22.70543	  7.91556	 -0.73954	 42.37497	712.28998	 32.30	
 11.890	 16.390	 39.40285	 31.78773	  1.38681	 20.44926	  9.90236	 -0.74754	 42.34332	712.22998	 32.30	
 11.899	  8.217	 39.44459	 32.37378	  0.98999	 18.08750	 12.09213	 -0.73071	 42.35050	712.26001	 32.20	
 11.900	  0.000	 39.47085	 32.65062	  0.83845	 15.70315	 14.29192	 -0.70844	 42.31761	712.32001	 32.20	
 11.899	 -8.217	 39.53406	 32.47015	  1.02814	 13.32729	 16.59457	 -0.71049	 42.32954	712.34998	 32.20	
 11.890	-16.390	 39.59264	 31.96382	  1.48733	 11.13488	 19.08437	 -0.77814	 42.32191	712.34003	 32.20	
 11.889	-24.555	 39.65134	 31.14872	  2.10797	  9.25834	 21.35007	 -0.85051	 42.31932	712.39001	 32.20	
 11.909	-32.701	 39.69323	 30.01748	  2.89535	  7.46599	 23.50297	 -0.90799	 42.31575	712.38000	 32.20	
 11.902	-40.852	 39.73632	 28.53044	  4.04696	  5.82734	 25.51275	 -0.95220	 42.31882	712.25000	 32.20	
 11.894	-49.133	 39.78072	 26.74759	  5.42182	  4.42166	 27.30361	 -0.93357	 42.29830	712.20001	 32.20	
 11.897	-57.268	 39.86891	 24.89219	  7.08307	  3.30155	 28.83088	 -0.92905	 42.33330	712.26001	 32.20	
 11.903	-65.403	 39.87575	 22.81436	  8.83163	  2.38190	 30.03702	 -0.97860	 42.29451	712.26001	 32.20	
 11.893	-73.654	 39.93859	 20.56010	 10.84541	  1.73434	 31.00095	 -1.01104	 42.32364	712.35999	 32.20	
 11.892	-81.845	 39.96873	 18.18817	 13.03675	  1.35013	 31.55764	 -1.01591	 42.32656	712.35999	 32.20	
 11.900	-90.000	 40.00411	 15.85889	 15.30205	  1.26089	 31.73881	 -0.98042	 42.32803	712.28998	 32.20	
 11.892	-98.155	 40.01868	 13.56722	 17.62783	  1.39218	 31.52063	 -0.97287	 42.30539	712.35999	 32.20	
 11.893	-106.346	 40.04732	 11.47403	 19.98264	  1.72184	 30.98755	 -0.99297	 42.30869	712.27002	 32.20	
 11.903	-114.597	 40.06837	  9.49972	 22.25723	  2.32896	 30.06766	 -1.03323	 42.30456	712.27002	 32.20	
 11.897	-122.732	 40.10953	  7.70119	 24.36237	  3.15024	 28.82393	 -1.05499	 42.31978	712.34003	 32.20	
 11.894	-130.867	 40.09665	  6.06008	 26.28845	  4.18489	 27.30849	 -1.04561	 42.30774	712.26001	 32.20	
 11.902	-139.148	 40.09258	  4.61278	 28.09953	  5.63310	 25.51972	 -1.03386	 42.31219	712.27002	 32.10	
 11.909	-147.299	 40.08326	  3.47041	 29.60222	  7.24260	 23.58109	 -1.06272	 42.32287	712.22998	 32.10	
 11.889	-155.445	 40.04939	  2.60118	 30.76692	  9.05106	 21.41378	 -1.10284	 42.30856	712.21997	 32.10	
 11.890	-163.610	 40.01470	  1.96033	 31.61417	 10.97017	 19.15550	 -1.16273	 42.32207	712.34003	 32.10	
 11.899	-171.783	 39.94388	  1.53787	 32.13476	 13.10792	 16.58952	 -1.16693	 42.29298	712.34998	 32.10	
 11.900	180.000	 39.87695	  1.34131	 32.29743	 15.41007	 14.24540	 -1.16950	 42.28308	712.22998	 32.10	
 13.600	180.000	 38.95086	 -1.18726	 33.95955	 14.49809	 13.59419	 -1.43804	 42.31120	712.33002	 32.10	
 13.608	-172.853	 38.99817	 -0.96014	 33.81903	 12.28790	 15.77873	 -1.44888	 42.28505	712.28003	 32.10	
 13.611	-165.583	 39.05576	 -0.62030	 33.32721	 10.19622	 18.27669	 -1.42445	 42.29015	712.27002	 32.10	
 13.601	-158.353	 39.10970	 -0.11462	 32.55957	  8.26907	 20.61456	 -1.37720	 42.30505	712.29999	 32.10	
 13.609	-151.210	 39.12784	  0.61418	 31.49824	  6.39059	 22.84488	 -1.28307	 42.28611	712.35999	 32.10	
 13.611	-143.999	 39.16085	  1.63074	 30.15850	  4.64334	 24.95603	 -1.22563	 42.30803	712.41998	 32.10	
 13.601	-136.825	 39.16744	  2.86332	 28.54301	  3.13961	 26.83538	 -1.20891	 42.29335	712.27002	 32.10	
 13.596	-129.640	 39.19029	  4.35268	 26.75137	  1.92397	 28.56049	 -1.22676	 42.28644	712.28998	 32.10	
