FileType=PCF
NHL=14
Date=03/20/19	11:26:17
Facility=APL
Serial=16071-7
Customer=NASA
NP=6
Mach=0.450000
Calibration=1:1
CalPts=490
TstPts=95
PortNumbering=AP Standard
Units=Torr C m/s kg/m^3 deg mm 
Theta[deg]	Phi[deg]	P1[Torr]	P2[Torr]	P3[Torr]	P4[Torr]	P5[Torr]	P6[Torr]	Pt[Torr]	Ps[Abs,Torr]	Ts[C]	
  0.000	  0.000	 91.66306	 38.46135	 41.63067	 40.22065	 39.02687	  1.52813	 91.57327	711.85999	 35.30	
  1.691	128.401	 91.67411	 35.46778	 44.23286	 44.04298	 34.91512	  1.42601	 91.62136	711.89001	 35.40	
  1.692	 77.194	 91.70996	 39.61659	 40.19331	 44.95762	 34.09454	  1.55472	 91.64095	712.08002	 35.40	
  1.699	 26.182	 91.75088	 42.95093	 37.13835	 42.31219	 36.84074	  1.62383	 91.64906	711.91998	 35.50	
  1.699	-26.182	 91.73297	 42.78644	 37.45433	 38.02552	 41.11428	  1.54304	 91.62771	712.03003	 35.60	
  1.692	-77.194	 91.76690	 39.34724	 40.85926	 35.60001	 43.68126	  1.42293	 91.69147	712.00000	 35.60	
  1.691	-128.401	 91.74026	 35.29266	 44.82322	 36.52876	 42.64550	  1.35267	 91.69794	712.01001	 35.70	
  1.700	180.000	 91.74218	 33.64853	 46.37021	 40.20417	 38.83995	  1.34123	 91.69995	712.03998	 35.70	
  3.400	180.000	 91.57478	 28.51968	 51.07254	 39.98534	 38.30470	  0.99342	 91.75370	712.06000	 35.80	
  3.388	-152.325	 91.57741	 29.55676	 50.24794	 35.57183	 42.86987	  0.99324	 91.72459	712.03998	 35.80	
  3.397	-124.529	 91.59834	 32.57946	 47.12036	 32.21180	 46.51945	  0.99903	 91.71725	712.07001	 35.80	
  3.399	-96.763	 91.67973	 36.71783	 42.77644	 30.53421	 48.29692	  1.07067	 91.73755	712.06000	 35.90	
  3.394	-69.283	 91.69599	 41.37719	 38.29783	 31.07563	 47.86258	  1.21410	 91.71621	712.01001	 35.90	
  3.400	-41.398	 91.75348	 45.52581	 34.44863	 33.57084	 45.21771	  1.35485	 91.75816	712.03003	 35.90	
  3.401	-14.021	 91.75665	 47.92093	 32.14177	 37.50351	 41.07158	  1.48656	 91.75126	712.03998	 36.00	
  3.401	 14.021	 91.77187	 48.09344	 31.75090	 42.12714	 36.44693	  1.57672	 91.76531	712.06000	 36.00	
  3.400	 41.398	 91.73524	 45.87753	 33.70901	 46.44104	 32.17739	  1.57668	 91.76643	712.08002	 36.10	
  3.394	 69.283	 91.71864	 41.88261	 37.41687	 49.21130	 29.54187	  1.45226	 91.79626	712.03998	 36.10	
  3.399	 96.763	 91.66251	 37.20825	 41.88972	 49.87495	 28.92757	  1.33622	 91.79407	712.08002	 36.20	
  3.397	124.529	 91.61736	 32.91842	 46.32740	 48.16137	 30.37415	  1.19467	 91.77364	711.98999	 36.20	
  3.388	152.325	 91.63382	 29.74589	 49.65856	 44.57832	 33.76048	  1.09309	 91.81938	711.92999	 36.30	
  5.099	161.165	 91.07961	 24.05382	 54.45800	 44.27950	 32.80515	  0.57630	 91.79019	711.96997	 36.30	
  5.109	142.013	 91.11273	 26.38395	 51.89329	 48.72256	 28.73452	  0.68277	 91.81974	712.03998	 36.40	
  5.095	123.033	 91.12096	 29.97783	 48.05447	 52.11096	 25.58784	  0.80962	 91.79215	711.96997	 36.40	
  5.105	104.191	 91.21291	 34.45238	 43.56636	 54.18977	 23.75571	  0.94229	 91.83854	712.04999	 36.40	
  5.093	 85.207	 91.26714	 39.20124	 38.79247	 54.62656	 23.54908	  1.07129	 91.83835	711.89001	 36.50	
  5.104	 66.290	 91.28860	 43.95987	 34.24061	 53.35609	 24.69336	  1.17409	 91.82679	711.91998	 36.50	
  5.094	 47.331	 91.34827	 48.17767	 30.11072	 50.34240	 27.41219	  1.27213	 91.83977	711.90997	 36.60	
  5.089	 28.397	 91.37642	 51.21694	 27.38130	 46.37159	 31.14401	  1.35149	 91.82748	711.91998	 36.60	
  5.096	  9.576	 91.42872	 52.89188	 26.01125	 41.74372	 35.80848	  1.44535	 91.84313	711.96997	 36.70	
  5.096	 -9.576	 91.43698	 52.75542	 26.16961	 36.92924	 40.66756	  1.35710	 91.82744	711.91998	 36.70	
  5.089	-28.397	 91.45175	 50.96207	 28.41842	 32.66915	 45.27603	  1.24792	 91.83085	711.96997	 36.70	
  5.094	-47.331	 91.40493	 47.68271	 31.39984	 28.77647	 49.23155	  1.05870	 91.81944	711.96002	 36.80	
  5.104	-66.290	 91.37412	 43.30858	 35.40672	 26.18997	 51.98430	  0.86012	 91.81001	711.96997	 36.80	
  5.093	-85.207	 91.38809	 38.51065	 40.01007	 25.09652	 53.10763	  0.76893	 91.86541	711.98999	 36.90	
  5.105	-104.191	 91.31110	 33.84409	 44.73603	 25.46813	 52.54240	  0.66866	 91.86001	711.78003	 36.90	
  5.095	-123.033	 91.27689	 29.54959	 49.18249	 27.42780	 50.32188	  0.60230	 91.86723	711.82001	 36.90	
  5.109	-142.013	 91.20965	 26.07310	 52.89300	 30.56494	 46.88461	  0.59548	 91.87466	711.90997	 36.90	
  5.099	-161.165	 91.22134	 23.78497	 55.13560	 34.94520	 42.37778	  0.61013	 91.88680	711.90997	 37.00	
  5.100	180.000	 91.18407	 23.15981	 55.59048	 39.55120	 37.61546	  0.66745	 91.88953	711.88000	 37.00	
  6.800	180.000	 90.30334	 17.90946	 59.83047	 38.80809	 36.62469	  0.07916	 91.85589	711.88000	 37.00	
  6.796	-166.229	 90.35306	 18.31346	 59.56364	 34.33195	 41.23356	  0.02408	 91.87618	711.91998	 37.10	
  6.808	-152.311	 90.39016	 19.76802	 57.95860	 29.78595	 45.91615	 -0.02741	 91.86994	711.85999	 37.10	
  6.795	-138.383	 90.45827	 22.22958	 55.24141	 26.07288	 49.99978	 -0.07807	 91.90522	711.90997	 37.10	
  6.792	-124.591	 90.47741	 25.71274	 51.66796	 23.20460	 53.36752	 -0.06261	 91.86914	711.91998	 37.20	
  6.787	-110.754	 90.60408	 29.76493	 47.44281	 21.23857	 55.88563	 -0.02081	 91.93426	711.94000	 37.20	
  6.800	-96.985	 90.61825	 34.26916	 42.86488	 20.04368	 57.28243	  0.05789	 91.88519	711.94000	 37.20	
  6.800	-83.015	 90.68304	 38.80996	 38.16745	 20.03939	 57.42381	  0.10933	 91.88497	711.92999	 37.20	
  6.787	-69.246	 90.75139	 43.54206	 33.70135	 21.00606	 56.35966	  0.22351	 91.90466	712.02002	 37.30	
  6.792	-55.409	 90.77119	 48.03307	 29.52839	 22.85916	 54.18046	  0.36640	 91.91098	711.97998	 37.30	
  6.795	-41.617	 90.81989	 51.87974	 26.23280	 25.75746	 50.92308	  0.48909	 91.91971	712.01001	 37.30	
  6.808	-27.689	 90.81699	 54.91890	 23.69296	 29.66128	 46.81656	  0.65870	 91.92579	711.88000	 37.40	
  6.796	-13.771	 90.75887	 56.78217	 21.89536	 34.14479	 42.13306	  0.83184	 91.86013	711.96002	 37.40	
  6.800	  0.000	 90.78109	 57.54071	 21.22034	 38.63583	 37.48970	  0.93326	 91.90678	712.04999	 37.40	
  6.796	 13.771	 90.74838	 57.08808	 21.40616	 43.27762	 32.71947	  0.99093	 91.91825	711.94000	 37.40	
  6.808	 27.689	 90.72545	 55.38830	 22.72676	 47.85810	 28.44548	  1.02015	 91.97617	712.01001	 37.40	
  6.795	 41.617	 90.69274	 52.50193	 25.12188	 51.90054	 24.48519	  0.95754	 91.96081	711.95001	 37.50	
  6.792	 55.409	 90.65010	 48.80364	 28.29179	 55.24318	 21.50049	  0.87652	 91.97141	711.96002	 37.50	
  6.787	 69.246	 90.56484	 44.35934	 31.86785	 57.63482	 19.39556	  0.79686	 91.90805	711.96002	 37.50	
  6.800	 83.015	 90.52219	 39.76215	 36.20042	 58.96817	 18.18152	  0.71025	 91.93145	712.10999	 37.50	
  6.800	 96.985	 90.48933	 35.09598	 41.03388	 58.97274	 18.01815	  0.62641	 91.95402	711.96997	 37.60	
  6.787	110.754	 90.43681	 30.46805	 45.91705	 57.74658	 19.07381	  0.55406	 91.94352	711.96002	 37.60	
  6.792	124.591	 90.41137	 26.31495	 50.23749	 55.50387	 21.03355	  0.48113	 91.93318	712.06000	 37.60	
  6.795	138.383	 90.41824	 22.90982	 54.02853	 52.20083	 23.86393	  0.33854	 91.97013	712.06000	 37.70	
  6.808	152.311	 90.33891	 20.25597	 57.01073	 48.26522	 27.64102	  0.23541	 91.92287	712.17999	 37.70	
  6.796	166.229	 90.43644	 18.66152	 59.02794	 43.70730	 31.95355	  0.16026	 92.01428	712.00000	 37.70	
  8.491	168.704	 89.20779	 13.27777	 63.11422	 42.85182	 30.75486	 -0.51202	 91.94878	712.04999	 37.70	
  8.502	157.493	 89.18244	 14.66705	 61.47857	 47.60613	 26.09191	 -0.52370	 91.97778	711.98999	 37.80	
  8.494	146.194	 89.25178	 16.91489	 58.88761	 51.81255	 22.28220	 -0.75086	 91.99274	712.03998	 37.80	
  8.495	135.039	 89.22800	 19.63611	 55.51806	 55.83238	 18.95458	 -0.34307	 91.94650	712.07001	 37.80	
  8.487	123.723	 89.29072	 23.12671	 51.45683	 59.01604	 16.20262	 -0.24190	 91.99002	712.15002	 37.80	
  8.492	112.575	 89.21971	 27.22070	 47.04026	 61.32911	 13.84577	 -0.19005	 91.92038	712.03003	 37.80	
  8.510	101.220	 89.32355	 31.71288	 42.33540	 62.93819	 12.53503	 -0.10080	 91.98978	712.06000	 37.90	
  8.500	 90.000	 89.33700	 36.55975	 37.57334	 63.43609	 12.15153	 -0.00966	 91.95315	712.19000	 37.90	
  8.510	 78.780	 89.37871	 41.28610	 32.57273	 62.90396	 12.60673	  0.06751	 91.94724	712.08002	 37.90	
  8.492	 67.425	 89.44524	 46.10626	 28.62964	 61.17003	 14.04719	  0.16273	 91.95777	712.10999	 37.90	
  8.487	 56.277	 89.52668	 50.42844	 24.86256	 58.80600	 16.51285	  0.24823	 91.99102	712.03003	 38.00	
  8.495	 44.961	 89.56116	 54.43483	 21.60418	 55.64605	 19.49140	  0.05858	 91.97753	712.02002	 38.00	
  8.494	 33.806	 89.62984	 57.67521	 19.01383	 51.61331	 22.93077	  0.47949	 91.98679	712.13000	 38.00	
  8.502	 22.507	 89.64122	 60.12680	 17.00911	 47.32597	 26.99865	  0.48578	 92.00249	712.19000	 38.10	
  8.491	 11.296	 89.69302	 61.55592	 15.93345	 42.48162	 31.63896	  0.44354	 91.96124	712.07001	 38.10	
  8.500	  0.000	 89.73209	 61.96064	 15.80779	 37.51688	 36.64702	  0.35233	 91.98663	712.16998	 38.10	
  8.491	-11.296	 89.77445	 61.31527	 16.38511	 32.85506	 41.52955	  0.24591	 92.00343	712.15002	 38.10	
  8.502	-22.507	 89.74968	 59.67667	 17.90398	 28.27004	 46.31488	  0.03066	 91.97105	712.17999	 38.20	
  8.494	-33.806	 89.80909	 57.09184	 20.12650	 24.14326	 50.74420	 -0.17769	 92.00798	712.15997	 38.20	
  8.495	-44.961	 89.79592	 53.74799	 22.83536	 20.81798	 54.60831	 -0.32063	 92.03094	712.16998	 38.20	
  8.487	-56.277	 89.74093	 49.62101	 26.22141	 18.09732	 57.75835	 -0.41300	 91.97362	712.15997	 38.20	
  8.492	-67.425	 89.72935	 45.16875	 30.14259	 16.09286	 60.12078	 -0.56931	 91.99486	712.19000	 38.20	
  8.510	-78.780	 89.66119	 40.31777	 34.66862	 14.90616	 61.53653	 -0.66814	 91.98080	712.19000	 38.20	
  8.500	-90.000	 89.64720	 35.56817	 39.44201	 14.60164	 61.89009	 -0.70059	 92.00807	712.12000	 38.20	
  8.510	-101.220	 89.56780	 30.92519	 44.23518	 15.01318	 61.24939	 -0.73591	 91.97824	712.06000	 38.30	
  8.492	-112.575	 89.53990	 26.50343	 48.91677	 16.47876	 59.50729	 -0.78579	 92.00243	712.22998	 38.30	
  8.487	-123.723	 89.48216	 22.31330	 53.18472	 18.64969	 56.73023	 -0.82612	 91.97657	712.21002	 38.30	
  8.495	-135.039	 89.46803	 19.04994	 57.04589	 21.37784	 53.35408	 -0.78486	 92.00188	712.16998	 38.30	
  8.494	-146.194	 89.43185	 16.33095	 60.12680	 24.60361	 49.48306	 -0.78015	 92.03581	712.15997	 38.30	
  8.502	-157.493	 89.31259	 14.17735	 62.44163	 28.80806	 44.91835	 -0.74693	 91.98169	712.14001	 38.30	
  8.491	-168.704	 89.26745	 13.09786	 63.71034	 33.28584	 40.09937	 -0.73197	 91.94829	712.17999	 38.30	
  8.500	180.000	 89.26567	 12.80507	 63.92524	 37.91704	 35.20389	 -0.67429	 91.98836	712.13000	 38.30	
 10.200	180.000	 87.82104	  7.59804	 67.79559	 36.71547	 33.88997	 -1.46544	 92.04780	712.20001	 38.40	
 10.191	-170.497	 87.83055	  7.87639	 67.58864	 31.95069	 38.81634	 -1.48683	 91.99127	712.16998	 38.40	
 10.210	-161.034	 87.89939	  8.74832	 66.55262	 27.43854	 43.77101	 -1.59367	 92.04344	712.21002	 38.40	
 10.194	-151.526	 87.93874	 10.46009	 64.49220	 23.12069	 48.46843	 -1.64273	 92.01156	712.21002	 38.40	
 10.190	-142.105	 87.97144	 12.73299	 61.87326	 19.58615	 52.65102	 -1.58635	 91.98877	712.14001	 38.40	
 10.215	-132.646	 88.03212	 15.56534	 58.63789	 16.44466	 56.69067	 -1.63895	 92.01908	712.09998	 38.40	
 10.203	-123.092	 88.05547	 18.93844	 54.60386	 13.80893	 60.12089	 -1.69712	 92.00750	712.06000	 38.40	
 10.192	-113.678	 88.14324	 22.72507	 50.29980	 11.45509	 62.69030	 -1.67613	 92.04087	712.09998	 38.40	
 10.208	-104.249	 88.17061	 27.33387	 45.65080	 10.01219	 64.54548	 -1.67915	 92.01801	712.12000	 38.40	
 10.210	-94.801	 88.25373	 31.95160	 40.83381	  9.42365	 65.64620	 -1.59166	 92.03623	712.14001	 38.50	
 10.210	-85.199	 88.28201	 36.78018	 35.87999	  9.30378	 65.92522	 -1.54601	 92.03491	712.15002	 38.50	
 10.208	-75.751	 88.34492	 41.58037	 31.13841	  9.85229	 65.21698	 -1.58065	 92.06468	712.25000	 38.50	
 10.192	-66.322	 88.33565	 46.40630	 26.71535	 11.15589	 63.47239	 -1.50996	 92.02035	712.13000	 38.50	
 10.203	-56.908	 88.32684	 50.88066	 22.80089	 13.36768	 61.07371	 -1.29285	 91.99078	712.08002	 38.50	
 10.215	-47.354	 88.42152	 55.19585	 19.48545	 16.01093	 57.93915	 -1.24319	 92.05482	712.15002	 38.50	
 10.190	-37.895	 88.45716	 58.80045	 16.64858	 19.14215	 54.08880	 -1.35530	 92.04230	712.09003	 38.50	
 10.194	-28.474	 88.46412	 61.73714	 14.39281	 22.75193	 49.86792	 -0.93592	 92.02956	712.25000	 38.50	
 10.210	-18.966	 88.44134	 64.18571	 12.45766	 26.93448	 45.21130	 -0.76729	 92.03835	712.20001	 38.50	
 10.191	 -9.503	 88.40652	 65.58548	 11.13701	 31.61391	 40.26349	 -0.59844	 91.98811	712.17999	 38.60	
 10.200	  0.000	 88.38196	 66.12503	 10.68063	 36.46022	 35.37405	 -0.47119	 92.00098	712.23999	 38.60	
 10.191	  9.503	 88.33939	 65.74984	 10.83166	 41.37742	 30.53483	 -0.38239	 92.00921	712.21997	 38.60	
 10.210	 18.966	 88.25955	 64.56106	 11.57858	 46.16833	 25.60612	 -0.37986	 92.02150	712.13000	 38.60	
 10.194	 28.474	 88.18687	 62.31030	 13.17294	 50.55542	 21.49311	 -0.39299	 91.94568	712.15002	 38.60	
 10.190	 37.895	 88.24514	 59.54623	 15.37468	 55.04598	 17.73770	 -0.45921	 92.03668	712.03998	 38.60	
 10.215	 47.354	 88.13760	 56.01651	 17.95191	 58.87395	 13.98307	 -1.19973	 92.01665	712.03998	 38.60	
 10.203	 56.908	 88.11070	 51.85435	 21.26054	 62.08074	 11.22777	 -0.70516	 92.02591	712.16998	 38.60	
 10.192	 66.322	 88.07517	 47.47197	 25.04409	 64.56509	  9.23173	 -1.43036	 92.00294	712.14001	 38.60	
 10.208	 75.751	 88.07109	 42.76040	 29.21570	 66.36728	  8.02071	 -0.84485	 92.06678	712.21997	 38.60	
 10.210	 85.199	 87.97932	 37.93910	 33.52344	 67.16203	  7.39663	 -1.00555	 91.99821	712.20001	 38.60	
 10.210	 94.801	 87.98943	 32.95192	 38.65348	 67.26521	  7.27603	 -0.93100	 92.05096	712.10999	 38.70	
 10.208	104.249	 87.82048	 28.37449	 43.39069	 66.38191	  7.66911	 -1.34677	 91.95808	712.09998	 38.70	
 10.192	113.678	 87.81490	 23.70895	 48.09447	 64.77278	  8.94211	 -1.64947	 91.99368	712.20001	 38.70	
 10.203	123.092	 87.76550	 19.75891	 52.54710	 62.41372	 10.73898	 -1.19534	 92.01195	712.15002	 38.70	
 10.215	132.646	 87.73751	 16.18094	 56.71685	 59.25185	 13.14430	 -1.26918	 92.01323	712.20001	 38.70	
 10.190	142.105	 87.74741	 13.37084	 60.36512	 55.34520	 16.36680	 -1.85185	 92.00488	712.23999	 38.70	
 10.194	151.526	 87.70963	 11.11000	 63.30233	 50.88717	 20.05238	 -1.38201	 91.99719	712.08002	 38.70	
 10.210	161.034	 87.69184	  9.20563	 65.59005	 46.56472	 24.50433	 -1.52427	 92.01485	712.14001	 38.70	
 10.191	170.497	 87.69534	  8.02418	 67.03827	 41.63430	 29.11816	 -1.59106	 91.94924	712.12000	 38.80	
 11.899	171.783	 85.92664	  2.23449	 70.69449	 40.17199	 27.58375	 -2.77411	 92.00333	712.09003	 38.80	
 11.890	163.610	 85.91168	  3.07534	 69.36642	 45.09511	 22.91857	 -2.74161	 92.02703	712.10999	 38.80	
 11.889	155.445	 85.86555	  4.49285	 67.32221	 49.69254	 18.38473	 -2.77964	 91.96864	712.17999	 38.80	
 11.909	147.299	 85.87753	  6.45887	 64.74116	 54.21289	 14.48149	 -2.89169	 92.00693	712.14001	 38.80	
 11.902	139.148	 85.85149	  9.16434	 61.46939	 58.46875	 10.99405	 -2.54223	 91.97324	712.15002	 38.80	
 11.894	130.867	 85.89581	 12.61319	 57.63498	 62.11325	  8.07967	 -2.69973	 91.96388	712.15002	 38.80	
 11.897	122.732	 85.98059	 16.11491	 53.39234	 65.26484	  5.73576	 -2.64647	 91.99691	712.09998	 38.80	
 11.903	114.597	 86.02477	 19.97948	 48.89717	 67.70358	  3.88274	 -2.40726	 92.00945	712.25000	 38.80	
 11.893	106.346	 86.05009	 24.29451	 44.10999	 69.55553	  2.66915	 -2.67420	 91.99163	712.15997	 38.80	
 11.892	 98.155	 86.13411	 29.36917	 39.20098	 70.69894	  2.02654	 -2.03745	 92.00579	712.19000	 38.80	
 11.900	 90.000	 86.18056	 33.92683	 34.42474	 71.05740	  1.92395	 -1.82364	 92.00040	712.21997	 38.80	
 11.892	 81.845	 86.25494	 38.88441	 29.82327	 70.56196	  2.30070	 -2.47166	 91.99894	712.22998	 38.80	
 11.893	 73.654	 86.30470	 43.73372	 25.39059	 69.34153	  3.04447	 -1.87157	 91.98729	712.14001	 38.90	
 11.903	 65.403	 86.37315	 48.52810	 21.27601	 67.49980	  4.31417	 -2.45596	 92.00832	712.26001	 38.90	
 11.897	 57.268	 86.42245	 52.93588	 17.51036	 64.99680	  6.18418	 -1.52602	 92.01774	712.13000	 38.90	
 11.894	 49.133	 86.42706	 57.13749	 13.95126	 61.84967	  8.64156	 -2.24147	 92.01001	712.22998	 38.90	
 11.902	 40.852	 86.45327	 60.89637	 11.16734	 58.14592	 11.81769	 -1.47753	 91.99249	712.21997	 38.90	
 11.909	 32.701	 86.50192	 64.03642	  8.99359	 53.97216	 15.43232	 -1.36148	 91.98607	712.19000	 38.90	
 11.889	 24.555	 86.55953	 66.58451	  7.19850	 49.51523	 19.86746	 -1.58697	 92.00977	712.19000	 39.00	
 11.890	 16.390	 86.62398	 68.36704	  6.14649	 44.84517	 24.17278	 -1.18440	 91.98979	712.20001	 39.00	
 11.899	  8.217	 86.68489	 69.47585	  5.49096	 39.93487	 28.92515	 -1.35969	 91.99015	712.21002	 39.00	
 11.900	  0.000	 86.71114	 69.79710	  5.39976	 34.98266	 33.79078	 -1.34338	 92.00057	712.35999	 39.00	
 11.899	 -8.217	 86.70860	 69.35947	  5.73252	 30.20833	 38.83640	 -1.44817	 92.00261	712.25000	 39.00	
 11.890	-16.390	 86.81171	 68.13041	  6.72119	 25.44374	 43.85699	 -1.78518	 92.05391	712.25000	 39.00	
 11.889	-24.555	 86.69940	 66.12013	  8.69255	 21.17790	 48.59528	 -1.75784	 91.96748	712.20001	 39.00	
 11.909	-32.701	 86.70441	 63.41854	 10.58125	 17.48009	 53.00203	 -2.20056	 91.98172	712.19000	 39.00	
 11.902	-40.852	 86.69262	 60.09497	 12.97834	 14.05183	 57.22690	 -2.43399	 92.00680	712.13000	 39.10	
 11.894	-49.133	 86.65001	 56.19487	 15.95927	 10.62270	 60.94704	 -2.08046	 91.97646	712.16998	 39.10	
 11.897	-57.268	 86.68197	 51.84759	 19.40110	  8.14013	 64.12348	 -2.51771	 92.03412	712.16998	 39.10	
 11.903	-65.403	 86.61324	 47.33567	 23.17810	  6.31805	 66.55715	 -2.23715	 91.99780	712.22998	 39.10	
 11.893	-73.654	 86.60657	 42.52920	 27.53528	  5.03913	 68.33984	 -2.59900	 91.99987	712.28998	 39.10	
 11.892	-81.845	 86.59056	 37.63457	 32.21147	  4.21833	 69.41768	 -2.27259	 91.99912	712.19000	 39.10	
 11.900	-90.000	 86.49906	 32.84007	 36.97421	  3.91681	 69.63731	 -2.26265	 91.98466	712.20001	 39.10	
 11.892	-98.155	 86.49282	 28.22531	 41.85032	  4.22493	 69.06765	 -2.38137	 92.01639	712.28998	 39.10	
 11.893	-106.346	 86.45975	 23.34570	 46.70953	  5.17857	 67.76553	 -2.55108	 92.04678	712.21002	 39.10	
 11.903	-114.597	 86.42258	 19.09328	 51.30913	  6.53093	 65.73188	 -2.50418	 92.04247	712.17999	 39.10	
 11.897	-122.732	 86.36040	 15.30424	 55.66880	  8.42684	 63.06300	 -2.51798	 91.99819	712.29999	 39.10	
 11.894	-130.867	 86.37786	 11.89206	 59.82170	 11.03305	 59.73009	 -2.34771	 92.06567	712.21997	 39.20	
 11.902	-139.148	 86.30258	  8.59173	 63.36783	 14.44743	 55.80463	 -2.33063	 92.02254	712.16998	 39.20	
 11.909	-147.299	 86.23843	  6.24672	 66.21137	 17.96327	 51.50745	 -2.54491	 91.98506	712.17999	 39.20	
 11.889	-155.445	 86.22902	  4.49166	 68.51802	 21.59608	 47.07199	 -2.36355	 91.99461	712.21002	 39.20	
 11.890	-163.610	 86.18530	  3.16111	 70.30277	 25.89423	 42.23792	 -2.59513	 92.03384	712.28003	 39.20	
 11.899	-171.783	 85.85636	  2.27876	 71.04018	 30.63414	 37.23875	 -2.37151	 91.75737	712.34998	 39.20	
 11.900	180.000	 86.03111	  2.00775	 71.37882	 35.31704	 32.61580	 -2.34221	 92.02644	712.31000	 39.20	
 13.600	180.000	 83.83624	 -3.88535	 74.75612	 33.44437	 30.72888	 -3.47996	 92.01982	712.28998	 39.30	
 13.608	-172.853	 83.89506	 -3.58203	 74.65085	 28.79124	 35.51564	 -3.46142	 92.02316	712.22998	 39.30	
 13.611	-165.583	 83.95150	 -3.01007	 73.88223	 24.17490	 40.39040	 -3.36258	 92.01976	712.27002	 39.30	
 13.601	-158.353	 84.02818	 -1.77404	 72.27450	 20.01538	 45.32980	 -3.24150	 91.98005	712.29999	 39.30	
 13.609	-151.210	 84.11303	 -0.11665	 70.30752	 16.26154	 49.95519	 -3.10532	 92.01760	712.28003	 39.30	
 13.611	-143.999	 84.08891	  1.94981	 67.56485	 12.36666	 54.42437	 -3.01976	 91.97498	712.21002	 39.30	
 13.601	-136.825	 84.14826	  4.49343	 64.35751	  8.76810	 58.71016	 -3.02086	 91.99478	712.27002	 39.30	
 13.596	-129.640	 84.20191	  7.51034	 60.67926	  5.71569	 62.44996	 -2.97737	 92.02603	712.19000	 39.30	
