FileType=PCF
NHL=14
Date=03/20/19	09:39:47
Facility=APL
Serial=16071-7
Customer=NASA
NP=6
Mach=0.230000
Calibration=1:1
CalPts=490
TstPts=95
PortNumbering=AP Standard
Units=Torr C m/s kg/m^3 deg mm 
Theta[deg]	Phi[deg]	P1[Torr]	P2[Torr]	P3[Torr]	P4[Torr]	P5[Torr]	P6[Torr]	Pt[Torr]	Ps[Abs,Torr]	Ts[C]	
  0.000	  0.000	 25.57342	 10.47803	 11.02767	 10.76568	 10.60624	  0.49990	 25.58372	713.06000	 18.90	
  1.691	128.401	 25.56661	  9.62568	 11.82179	 11.86109	  9.47591	  0.47303	 25.58737	713.12000	 18.90	
  1.692	 77.194	 25.57270	 10.79037	 10.63930	 12.12083	  9.23833	  0.51775	 25.59508	713.15997	 18.90	
  1.699	 26.182	 25.57221	 11.72809	  9.74598	 11.35543	  9.98604	  0.54378	 25.58628	713.09003	 18.90	
  1.699	-26.182	 25.58989	 11.70081	  9.78614	 10.14254	 11.20849	  0.52254	 25.60302	713.04999	 18.90	
  1.692	-77.194	 25.59672	 10.73905	 10.75264	  9.46476	 11.91771	  0.47868	 25.61136	713.04999	 18.80	
  1.691	-128.401	 25.57047	  9.57514	 11.90927	  9.72129	 11.60722	  0.45427	 25.59242	713.02002	 18.80	
  1.700	180.000	 25.58561	  9.09326	 12.41898	 10.76848	 10.53963	  0.45499	 25.60475	713.04999	 18.80	
  3.400	180.000	 25.53766	  7.67093	 13.77975	 10.69198	 10.40473	  0.35647	 25.61300	713.08002	 18.80	
  3.388	-152.325	 25.54406	  7.94521	 13.50144	  9.46594	 11.66695	  0.35516	 25.61983	713.03003	 18.80	
  3.397	-124.529	 25.54458	  8.77296	 12.58089	  8.49675	 12.72034	  0.35817	 25.60604	713.08002	 18.80	
  3.399	-96.763	 25.55296	  9.96965	 11.34229	  8.03875	 13.26989	  0.38858	 25.60688	713.07001	 18.80	
  3.394	-69.283	 25.56414	 11.28107	 10.02871	  8.18134	 13.12495	  0.42030	 25.61214	713.09998	 18.80	
  3.400	-41.398	 25.56219	 12.44389	  8.90599	  8.88674	 12.34537	  0.46417	 25.60718	713.10999	 18.80	
  3.401	-14.021	 25.56658	 13.13507	  8.27551	  9.98417	 11.19300	  0.50294	 25.61418	713.09998	 18.80	
  3.401	 14.021	 25.55920	 13.17535	  8.22670	 11.31404	  9.86541	  0.53321	 25.60513	713.13000	 18.80	
  3.400	 41.398	 25.57433	 12.55752	  8.77712	 12.55572	  8.70159	  0.52763	 25.62836	713.03998	 18.70	
  3.394	 69.283	 25.56041	 11.41824	  9.82149	 13.36793	  7.93658	  0.50474	 25.61834	713.09003	 18.70	
  3.399	 96.763	 25.53938	 10.11319	 11.09905	 13.56615	  7.74762	  0.46176	 25.61007	713.07001	 18.70	
  3.397	124.529	 25.53448	  8.88073	 12.38693	 13.09680	  8.17351	  0.42776	 25.61153	713.03998	 18.70	
  3.388	152.325	 25.53267	  8.00205	 13.37660	 12.03677	  9.10640	  0.38130	 25.60431	713.08002	 18.70	
  5.099	161.165	 25.40251	  6.49948	 14.75109	 11.93210	  8.85163	  0.23883	 25.61500	713.10999	 18.70	
  5.109	142.013	 25.40853	  7.12123	 14.00211	 13.21956	  7.70153	  0.26234	 25.61761	712.96997	 18.70	
  5.095	123.033	 25.40595	  8.07908	 12.89669	 14.20026	  6.88631	  0.30773	 25.60497	713.01001	 18.70	
  5.105	104.191	 25.41934	  9.28514	 11.59332	 14.77770	  6.40884	  0.34226	 25.62275	712.96997	 18.70	
  5.093	 85.207	 25.44209	 10.63995	 10.23187	 14.86692	  6.33595	  0.38740	 25.62292	713.04999	 18.70	
  5.104	 66.290	 25.44068	 11.97697	  8.97307	 14.49543	  6.64623	  0.42563	 25.62273	713.14001	 18.70	
  5.094	 47.331	 25.43782	 13.17604	  7.91312	 13.64509	  7.38048	  0.42239	 25.60861	713.09003	 18.70	
  5.089	 28.397	 25.45525	 14.08088	  7.12588	 12.50743	  8.43639	  0.46696	 25.61782	713.15002	 18.70	
  5.096	  9.576	 25.46152	 14.52700	  6.77128	 11.19108	  9.67800	  0.46357	 25.62828	713.06000	 18.70	
  5.096	 -9.576	 25.46060	 14.48344	  6.80870	  9.82227	 11.03793	  0.44476	 25.62335	713.06000	 18.70	
  5.089	-28.397	 25.47082	 13.97034	  7.26813	  8.61735	 12.31775	  0.39849	 25.63166	713.03003	 18.70	
  5.094	-47.331	 25.46471	 13.01876	  8.13064	  7.61185	 13.46083	  0.35879	 25.62961	712.98999	 18.70	
  5.104	-66.290	 25.46298	 11.79767	  9.26659	  6.94816	 14.24740	  0.30697	 25.63091	713.04999	 18.70	
  5.093	-85.207	 25.45705	 10.44738	 10.57400	  6.65581	 14.56225	  0.27278	 25.62698	713.02002	 18.70	
  5.105	-104.191	 25.45651	  9.12698	 11.92347	  6.76659	 14.41024	  0.25053	 25.64159	713.04999	 18.70	
  5.095	-123.033	 25.44942	  7.94750	 13.20787	  7.30574	 13.74950	  0.22143	 25.63895	713.08002	 18.70	
  5.109	-142.013	 25.43596	  6.99707	 14.24809	  8.16432	 12.75081	  0.23066	 25.64073	713.03003	 18.70	
  5.099	-161.165	 25.44034	  6.43790	 14.88465	  9.33359	 11.48329	  0.19533	 25.64178	713.04999	 18.70	
  5.100	180.000	 25.42175	  6.26599	 15.07376	 10.56857	 10.14862	  0.23806	 25.63390	713.01001	 18.70	
  6.800	180.000	 25.19930	  4.80860	 16.31153	 10.35467	  9.87445	  0.03474	 25.64224	713.12000	 18.70	
  6.796	-166.229	 25.20965	  4.94317	 16.18229	  9.14318	 11.18860	 -0.01235	 25.64509	713.10999	 18.70	
  6.808	-152.311	 25.20206	  5.31321	 15.70451	  7.95140	 12.48912	  0.01616	 25.63449	712.98999	 18.70	
  6.795	-138.383	 25.20812	  5.96357	 14.95238	  6.96132	 13.63096	  0.05299	 25.63622	713.03003	 18.70	
  6.792	-124.591	 25.22097	  6.85877	 13.92181	  6.12961	 14.62015	  0.01610	 25.63464	713.07001	 18.70	
  6.787	-110.754	 25.22548	  7.94494	 12.68744	  5.58022	 15.32997	  0.04557	 25.63279	713.15002	 18.70	
  6.800	-96.985	 25.24487	  9.17958	 11.37477	  5.27907	 15.73925	  0.04032	 25.63953	713.03003	 18.70	
  6.800	-83.015	 25.25148	 10.51211	 10.02692	  5.26759	 15.78808	  0.08405	 25.63600	713.06000	 18.70	
  6.787	-69.246	 25.26471	 11.81832	  8.82721	  5.57140	 15.46330	  0.07805	 25.64178	713.04999	 18.80	
  6.792	-55.409	 25.26174	 13.07574	  7.68742	  6.05144	 14.85436	  0.17225	 25.64248	713.07001	 18.80	
  6.795	-41.617	 25.25114	 14.15571	  6.73372	  6.81383	 13.90670	  0.16658	 25.63137	713.03003	 18.80	
  6.808	-27.689	 25.25902	 15.06852	  5.95460	  7.83253	 12.71593	  0.22598	 25.63366	713.01001	 18.80	
  6.796	-13.771	 25.26508	 15.63586	  5.47427	  9.02946	 11.44214	  0.31854	 25.64494	713.09003	 18.80	
  6.800	  0.000	 25.27559	 15.83957	  5.30264	 10.27844	 10.20517	  0.29288	 25.65031	712.97998	 18.80	
  6.796	 13.771	 25.26344	 15.71170	  5.38627	 11.61165	  8.87837	  0.36413	 25.64465	712.94000	 18.80	
  6.808	 27.689	 25.25361	 15.22819	  5.77860	 12.92760	  7.64687	  0.36507	 25.64496	713.09003	 18.80	
  6.795	 41.617	 25.24519	 14.39696	  6.45547	 14.09359	  6.60229	  0.27883	 25.64404	713.07001	 18.80	
  6.792	 55.409	 25.25595	 13.31962	  7.35043	 15.07015	  5.76035	  0.23651	 25.65142	713.09998	 18.80	
  6.787	 69.246	 25.24044	 12.07883	  8.42011	 15.77560	  5.14109	  0.28401	 25.64536	713.10999	 18.80	
  6.800	 83.015	 25.22402	 10.77022	  9.62831	 16.14003	  4.79788	  0.17719	 25.63627	713.15997	 18.80	
  6.800	 96.985	 25.22483	  9.41478	 10.96308	 16.18942	  4.77718	  0.18626	 25.65192	713.14001	 18.80	
  6.787	110.754	 25.22281	  8.15928	 12.29456	 15.84118	  5.06306	  0.11270	 25.65436	713.06000	 18.80	
  6.792	124.591	 25.20409	  7.04012	 13.53024	 15.18229	  5.57252	  0.15804	 25.64802	713.06000	 18.80	
  6.795	138.383	 25.20067	  6.12502	 14.62505	 14.23228	  6.34034	  0.13448	 25.65356	713.07001	 18.80	
  6.808	152.311	 25.20311	  5.41439	 15.50692	 13.07212	  7.33166	  0.04872	 25.65943	713.10999	 18.80	
  6.796	166.229	 25.20404	  4.97465	 16.09014	 11.73691	  8.53705	  0.03515	 25.65751	713.09998	 18.90	
  8.491	168.704	 24.86117	  3.40054	 17.30639	 11.45502	  8.13508	 -0.19579	 25.65101	713.09003	 18.90	
  8.502	157.493	 24.85872	  3.76000	 16.81773	 12.82634	  6.89356	 -0.19080	 25.64794	713.07001	 18.90	
  8.494	146.194	 24.85353	  4.31787	 16.05538	 14.09155	  5.79583	 -0.12125	 25.64808	713.09003	 18.90	
  8.495	135.039	 24.85701	  5.08382	 15.07818	 15.22752	  4.86818	 -0.07558	 25.64982	713.09003	 18.90	
  8.487	123.723	 24.86638	  6.03993	 13.91406	 16.17858	  4.13313	 -0.14799	 25.64664	713.09003	 18.90	
  8.492	112.575	 24.87751	  7.12581	 12.66787	 16.88504	  3.59018	 -0.14078	 25.65074	713.13000	 18.90	
  8.510	101.220	 24.87912	  8.40565	 11.29194	 17.33131	  3.23004	 -0.11590	 25.64492	713.08002	 18.90	
  8.500	 90.000	 24.91210	  9.78037	  9.94663	 17.45008	  3.14504	 -0.07535	 25.65850	713.02002	 18.90	
  8.510	 78.780	 24.90722	 11.15925	  8.60664	 17.28194	  3.28275	 -0.03943	 25.65381	713.15002	 18.90	
  8.492	 67.425	 24.92542	 12.50788	  7.36016	 16.81233	  3.70346	 -0.02373	 25.65660	713.01001	 18.90	
  8.487	 56.277	 24.92758	 13.75225	  6.29242	 16.07846	  4.29776	  0.00472	 25.64754	713.12000	 18.90	
  8.495	 44.961	 24.94089	 14.89819	  5.38297	 15.10656	  5.12139	  0.06091	 25.65010	713.10999	 18.90	
  8.494	 33.806	 24.95066	 15.83073	  4.67891	 13.98102	  6.13269	  0.19408	 25.65680	713.15002	 19.00	
  8.502	 22.507	 24.94618	 16.56580	  4.12546	 12.71600	  7.24135	  0.11642	 25.64611	713.16998	 19.00	
  8.491	 11.296	 24.96329	 16.98124	  3.83559	 11.36980	  8.52135	  0.13127	 25.65705	713.15002	 19.00	
  8.500	  0.000	 24.96387	 17.09087	  3.75771	  9.98105	  9.88292	  0.10564	 25.66039	713.02002	 19.00	
  8.491	-11.296	 24.96013	 16.89148	  3.93603	  8.69856	 11.20082	  0.09445	 25.64825	713.17999	 19.00	
  8.502	-22.507	 24.96971	 16.41240	  4.33495	  7.42288	 12.51075	  0.03196	 25.65033	713.12000	 19.00	
  8.494	-33.806	 24.95821	 15.62161	  4.98679	  6.29008	 13.80904	 -0.02582	 25.63506	713.09998	 19.00	
  8.495	-44.961	 24.97173	 14.65065	  5.79257	  5.40928	 14.91717	 -0.03992	 25.64865	713.14001	 19.00	
  8.487	-56.277	 24.97381	 13.48470	  6.75271	  4.69391	 15.82940	 -0.10486	 25.65295	713.09998	 19.00	
  8.492	-67.425	 24.96390	 12.19076	  7.85266	  4.16661	 16.50583	 -0.15036	 25.64683	713.09998	 19.00	
  8.510	-78.780	 24.94809	 10.82587	  9.14638	  3.81825	 16.92768	 -0.18657	 25.64923	713.13000	 19.10	
  8.500	-90.000	 24.94070	  9.50543	 10.46764	  3.71116	 17.02822	 -0.20317	 25.64976	713.15997	 19.10	
  8.510	-101.220	 24.92761	  8.18852	 11.81270	  3.82954	 16.83997	 -0.20570	 25.64984	713.15997	 19.10	
  8.492	-112.575	 24.92140	  6.92663	 13.17774	  4.18836	 16.33715	 -0.22872	 25.64668	713.16998	 19.10	
  8.487	-123.723	 24.91018	  5.83923	 14.39528	  4.76804	 15.57896	 -0.22095	 25.64014	713.15002	 19.10	
  8.495	-135.039	 24.90748	  4.90505	 15.51474	  5.58241	 14.59451	 -0.13919	 25.65325	713.17999	 19.10	
  8.494	-146.194	 24.89312	  4.18318	 16.38260	  6.48885	 13.46321	 -0.21203	 25.65185	713.09998	 19.10	
  8.502	-157.493	 24.89243	  3.66885	 17.03567	  7.59427	 12.17035	 -0.21365	 25.64699	713.08002	 19.10	
  8.491	-168.704	 24.89132	  3.35179	 17.43601	  8.82424	 10.82644	 -0.21691	 25.65814	713.03003	 19.10	
  8.500	180.000	 24.86970	  3.24087	 17.53126	 10.08871	  9.46064	 -0.19508	 25.65030	713.09998	 19.10	
 10.200	180.000	 24.43943	  1.65987	 18.67002	  9.72253	  9.04180	 -0.43741	 25.65337	713.09003	 19.10	
 10.191	-170.497	 24.46528	  1.75052	 18.59054	  8.43441	 10.42475	 -0.45040	 25.66269	713.21997	 19.20	
 10.210	-161.034	 24.48337	  2.03779	 18.27111	  7.17177	 11.81367	 -0.45530	 25.67227	713.15002	 19.20	
 10.194	-151.526	 24.47887	  2.44686	 17.71141	  6.02195	 13.13594	 -0.43129	 25.66046	713.15997	 19.20	
 10.190	-142.105	 24.48862	  3.03548	 16.94343	  5.03675	 14.37673	 -0.42709	 25.65602	713.14001	 19.20	
 10.215	-132.646	 24.48410	  3.81842	 15.94838	  4.10378	 15.53058	 -0.45369	 25.64561	713.13000	 19.20	
 10.203	-123.092	 24.51181	  4.80035	 14.78519	  3.34209	 16.54098	 -0.47665	 25.67244	713.17999	 19.20	
 10.192	-113.678	 24.51426	  5.90276	 13.54746	  2.75013	 17.29663	 -0.46774	 25.65320	713.14001	 19.20	
 10.208	-104.249	 24.51422	  7.09764	 12.21636	  2.34417	 17.85688	 -0.44563	 25.66845	713.15997	 19.20	
 10.210	-94.801	 24.51523	  8.39562	 10.83364	  2.13337	 18.14996	 -0.43566	 25.64835	713.15997	 19.20	
 10.210	-85.199	 24.54768	  9.75816	  9.45385	  2.11546	 18.20725	 -0.45396	 25.67439	713.09998	 19.20	
 10.208	-75.751	 24.54565	 11.10643	  8.12943	  2.30449	 17.99660	 -0.44275	 25.65758	713.13000	 19.30	
 10.192	-66.322	 24.55734	 12.50277	  6.91309	  2.68462	 17.52075	 -0.41069	 25.66476	713.21002	 19.30	
 10.203	-56.908	 24.56569	 13.81715	  5.78072	  3.23140	 16.82357	 -0.36567	 25.66990	713.15002	 19.30	
 10.215	-47.354	 24.55093	 15.04366	  4.74088	  3.90766	 15.89352	 -0.32923	 25.65283	713.09003	 19.30	
 10.190	-37.895	 24.57121	 16.11233	  3.96181	  4.78366	 14.78177	 -0.31018	 25.65675	713.20001	 19.30	
 10.194	-28.474	 24.55941	 16.98967	  3.24978	  5.78320	 13.57078	 -0.25724	 25.65746	713.12000	 19.30	
 10.210	-18.966	 24.56638	 17.67380	  2.70853	  6.98178	 12.21399	 -0.18839	 25.66033	713.15002	 19.30	
 10.191	 -9.503	 24.56168	 18.08499	  2.34370	  8.25592	 10.82899	 -0.12656	 25.65602	713.16998	 19.30	
 10.200	  0.000	 24.55357	 18.26402	  2.16677	  9.58296	  9.48286	 -0.10550	 25.65466	713.15997	 19.30	
 10.191	  9.503	 24.55632	 18.16450	  2.24435	 10.97826	  8.10696	 -0.11078	 25.65573	713.23999	 19.30	
 10.210	 18.966	 24.53890	 17.81019	  2.44646	 12.35533	  6.81621	 -0.09464	 25.65479	713.20001	 19.30	
 10.194	 28.474	 24.53629	 17.19661	  2.90481	 13.68480	  5.63584	 -0.07645	 25.65975	713.09998	 19.40	
 10.190	 37.895	 24.53329	 16.35697	  3.49648	 14.94369	  4.55865	 -0.10895	 25.65410	713.25000	 19.40	
 10.215	 47.354	 24.51525	 15.33048	  4.26820	 16.09858	  3.54409	 -0.18573	 25.66600	713.16998	 19.40	
 10.203	 56.908	 24.49917	 14.11929	  5.20879	 17.02618	  2.77969	 -0.23821	 25.64283	713.00000	 19.40	
 10.192	 66.322	 24.49486	 12.82203	  6.32101	 17.75345	  2.22865	 -0.25125	 25.64045	713.09003	 19.40	
 10.208	 75.751	 24.48834	 11.49114	  7.51867	 18.27145	  1.80663	 -0.25645	 25.64403	713.20001	 19.40	
 10.210	 85.199	 24.47570	 10.11678	  8.81002	 18.55081	  1.56667	 -0.27080	 25.63685	713.21002	 19.40	
 10.210	 94.801	 24.46189	  8.68376	 10.18225	 18.57907	  1.52969	 -0.32949	 25.63969	713.14001	 19.40	
 10.208	104.249	 24.44450	  7.33687	 11.57713	 18.33692	  1.72590	 -0.36405	 25.63856	713.13000	 19.40	
 10.192	113.678	 24.43933	  6.11572	 12.92249	 17.85261	  2.09146	 -0.37194	 25.64460	713.09003	 19.40	
 10.203	123.092	 24.41945	  4.99805	 14.19896	 17.15059	  2.60818	 -0.36652	 25.63497	713.13000	 19.50	
 10.215	132.646	 24.39659	  4.01993	 15.42161	 16.21252	  3.32120	 -0.38434	 25.62542	713.19000	 19.50	
 10.190	142.105	 24.40961	  3.20927	 16.48654	 15.08364	  4.21501	 -0.39215	 25.64135	713.20001	 19.50	
 10.194	151.526	 24.40023	  2.52274	 17.35815	 13.83328	  5.24187	 -0.40244	 25.62687	713.17999	 19.50	
 10.210	161.034	 24.40270	  2.04101	 18.02678	 12.50946	  6.36473	 -0.39314	 25.63046	713.21002	 19.50	
 10.191	170.497	 24.41575	  1.76349	 18.46428	 11.11398	  7.64938	 -0.39874	 25.62996	713.22998	 19.50	
 11.899	171.783	 23.88202	  0.19079	 19.52417	 10.67780	  7.17072	 -0.61823	 25.62371	713.10999	 19.50	
 11.890	163.610	 23.87318	  0.42632	 19.13489	 12.08179	  5.89833	 -0.61011	 25.62593	713.14001	 19.50	
 11.889	155.445	 23.87889	  0.82345	 18.54777	 13.44667	  4.72855	 -0.63112	 25.63427	713.28998	 19.50	
 11.909	147.299	 23.86877	  1.35518	 17.77370	 14.76873	  3.64091	 -0.64619	 25.63602	713.14001	 19.50	
 11.902	139.148	 23.86920	  2.07516	 16.80955	 15.98579	  2.67646	 -0.64747	 25.63420	713.17999	 19.50	
 11.894	130.867	 23.88498	  2.95515	 15.68094	 17.08225	  1.84981	 -0.62248	 25.63731	713.16998	 19.60	
 11.897	122.732	 23.88390	  3.95042	 14.44106	 17.97336	  1.19261	 -0.60636	 25.61581	713.17999	 19.60	
 11.903	114.597	 23.90072	  5.03855	 13.15266	 18.72727	  0.64646	 -0.62085	 25.62692	713.12000	 19.60	
 11.893	106.346	 23.91946	  6.25175	 11.79682	 19.25207	  0.28483	 -0.60937	 25.63614	713.26001	 19.60	
 11.892	 98.155	 23.93101	  7.57837	 10.38488	 19.58093	  0.03208	 -0.59366	 25.63496	713.32001	 19.60	
 11.900	 90.000	 23.94213	  8.95045	  8.99884	 19.67506	 -0.05246	 -0.55532	 25.63574	713.20001	 19.60	
 11.892	 81.845	 23.94847	 10.35884	  7.67284	 19.53089	  0.08281	 -0.52086	 25.62012	713.10999	 19.60	
 11.893	 73.654	 23.96669	 11.74422	  6.40621	 19.18152	  0.36133	 -0.50773	 25.62740	713.15002	 19.60	
 11.903	 65.403	 23.98419	 13.15414	  5.21996	 18.62296	  0.78285	 -0.50008	 25.63403	713.12000	 19.60	
 11.897	 57.268	 23.98470	 14.46541	  4.17288	 17.85889	  1.32659	 -0.48425	 25.63013	713.19000	 19.60	
 11.894	 49.133	 23.98045	 15.65741	  3.18978	 16.93344	  2.05633	 -0.44223	 25.62670	713.09003	 19.60	
 11.902	 40.852	 23.99879	 16.77331	  2.34667	 15.82982	  2.98471	 -0.35645	 25.64126	713.04999	 19.70	
 11.909	 32.701	 23.99891	 17.68654	  1.69633	 14.60025	  4.00253	 -0.29902	 25.62608	713.12000	 19.70	
 11.889	 24.555	 24.02708	 18.42689	  1.19418	 13.28021	  5.15384	 -0.30244	 25.64738	713.12000	 19.70	
 11.890	 16.390	 24.03193	 18.95116	  0.90095	 11.92486	  6.33446	 -0.31973	 25.63991	713.21997	 19.70	
 11.899	  8.217	 24.03591	 19.27248	  0.73060	 10.50707	  7.64603	 -0.33017	 25.64164	713.07001	 19.70	
 11.900	  0.000	 24.02448	 19.34612	  0.65799	  9.10693	  9.03044	 -0.32214	 25.62658	713.02002	 19.70	
 11.899	 -8.217	 24.03577	 19.18959	  0.81357	  7.76080	 10.37139	 -0.34636	 25.62756	713.04999	 19.70	
 11.890	-16.390	 24.03245	 18.80363	  1.14017	  6.48050	 11.79006	 -0.39000	 25.62804	713.03998	 19.70	
 11.889	-24.555	 24.01877	 18.21728	  1.60900	  5.27889	 13.19153	 -0.46568	 25.62017	713.02002	 19.70	
 11.909	-32.701	 24.03711	 17.45826	  2.18801	  4.23013	 14.47852	 -0.51188	 25.63520	713.04999	 19.80	
 11.902	-40.852	 24.02085	 16.48982	  2.85683	  3.26116	 15.67564	 -0.53790	 25.62223	713.15997	 19.80	
 11.894	-49.133	 24.02322	 15.35021	  3.75816	  2.42424	 16.77196	 -0.53564	 25.62708	713.16998	 19.80	
 11.897	-57.268	 24.01768	 14.09462	  4.74883	  1.73264	 17.68186	 -0.54821	 25.61882	713.07001	 19.80	
 11.903	-65.403	 24.02287	 12.76526	  5.86254	  1.23554	 18.38536	 -0.59053	 25.63312	713.08002	 19.80	
 11.893	-73.654	 24.01373	 11.36189	  7.09778	  0.94980	 18.88668	 -0.60349	 25.62354	713.06000	 19.80	
 11.892	-81.845	 24.01962	  9.95831	  8.40823	  0.72572	 19.17918	 -0.60371	 25.63097	713.12000	 19.80	
 11.900	-90.000	 24.00063	  8.60841	  9.72919	  0.67314	 19.24280	 -0.58949	 25.62981	713.06000	 19.80	
 11.892	-98.155	 24.00344	  7.29661	 11.08424	  0.67550	 19.09288	 -0.57711	 25.63582	713.10999	 19.80	
 11.893	-106.346	 24.00128	  6.01004	 12.49138	  0.92324	 18.72279	 -0.58805	 25.64440	713.12000	 19.80	
 11.903	-114.597	 23.95904	  4.79034	 13.84143	  1.31165	 18.12362	 -0.60717	 25.61679	713.10999	 19.90	
 11.897	-122.732	 23.95754	  3.71981	 15.12090	  1.84899	 17.36180	 -0.61857	 25.63353	713.06000	 19.90	
 11.894	-130.867	 23.95849	  2.76249	 16.29587	  2.59524	 16.38756	 -0.60436	 25.63156	713.10999	 19.90	
 11.902	-139.148	 23.96733	  1.90989	 17.37275	  3.50071	 15.24479	 -0.58527	 25.64420	713.09998	 19.90	
 11.909	-147.299	 23.95380	  1.24643	 18.23157	  4.46732	 13.98666	 -0.58881	 25.63758	713.12000	 19.90	
 11.889	-155.445	 23.95766	  0.78091	 18.89680	  5.53454	 12.69021	 -0.61664	 25.63976	713.02002	 19.90	
 11.890	-163.610	 23.94274	  0.44982	 19.35687	  6.72356	 11.32450	 -0.63557	 25.63920	713.15997	 19.90	
 11.899	-171.783	 23.92762	  0.17184	 19.66998	  8.00434	  9.92242	 -0.63249	 25.64769	713.15002	 19.90	
 11.900	180.000	 23.89724	  0.06443	 19.71391	  9.33861	  8.52675	 -0.61571	 25.62538	713.04999	 19.90	
 13.600	180.000	 23.27414	 -1.49583	 20.69338	  8.84176	  7.98527	 -0.80167	 25.62706	713.01001	 19.90	
 13.608	-172.853	 23.29801	 -1.42345	 20.65994	  7.52765	  9.35031	 -0.80832	 25.62957	713.12000	 19.90	
 13.611	-165.583	 23.29961	 -1.21304	 20.40644	  6.19668	 10.79222	 -0.79551	 25.62671	713.09003	 19.90	
 13.601	-158.353	 23.33749	 -0.87321	 19.99954	  4.98376	 12.18047	 -0.76971	 25.64696	713.02002	 20.00	
 13.609	-151.210	 23.33692	 -0.47018	 19.38299	  3.89114	 13.50183	 -0.72740	 25.63062	713.06000	 20.00	
 13.611	-143.999	 23.33775	  0.08559	 18.61407	  2.86599	 14.83028	 -0.69903	 25.63074	713.16998	 20.00	
 13.601	-136.825	 23.34942	  0.79440	 17.65251	  1.91193	 16.05370	 -0.70888	 25.62562	713.01001	 20.00	
 13.596	-129.640	 23.34077	  1.62330	 16.56710	  1.07827	 17.16042	 -0.70968	 25.61832	713.03998	 20.00	
