FileType=PCF
NHL=14
Date=05/30/19	11:00:57
Facility=APL
Serial=16071-7
Customer=NASA
NP=6
Mach=0.550000
Calibration=1:1
CalPts=490
TstPts=95
PortNumbering=AP Standard
Units=Torr C m/s kg/m^3 deg mm 
Theta[deg]	Phi[deg]	P1[Torr]	P2[Torr]	P3[Torr]	P4[Torr]	P5[Torr]	P6[Torr]	Pt[Torr]	Ps[Abs,Torr]	Ts[C]	
  0.000	  0.000	162.77357	 74.74520	 77.56432	 73.87163	 76.24535	  6.17169	162.65533	702.33002	 39.70	
  1.691	128.401	162.80939	 70.08701	 82.15054	 80.08504	 69.71987	  6.06158	162.70110	702.28998	 39.70	
  1.692	 77.194	162.85515	 76.73247	 75.56765	 81.60642	 68.26425	  6.09870	162.74303	702.28003	 39.70	
  1.699	 26.182	162.90839	 82.10205	 70.27682	 77.35079	 72.53893	  6.08857	162.79681	702.28998	 39.80	
  1.699	-26.182	162.86823	 81.79525	 70.34007	 70.20039	 79.54581	  6.03040	162.76462	703.00000	 39.80	
  1.692	-77.194	162.89859	 76.28690	 75.69580	 65.82207	 83.87485	  6.00855	162.81953	702.83002	 39.80	
  1.691	-128.401	162.92992	 69.70432	 82.33517	 67.54154	 82.31841	  5.95734	162.85486	702.67999	 39.90	
  1.700	180.000	162.96584	 66.92866	 85.44472	 73.88457	 75.97083	  5.98187	162.85912	702.59998	 39.90	
  3.400	180.000	162.69675	 58.54164	 93.24864	 73.18394	 75.47147	  5.48749	162.89592	703.07001	 39.80	
  3.388	-152.325	162.63391	 60.35237	 91.17435	 65.32607	 82.87473	  5.47823	162.87921	702.46997	 39.80	
  3.397	-124.529	162.61642	 65.01423	 85.98918	 59.54639	 88.76978	  5.47992	162.88081	703.22998	 39.80	
  3.399	-96.763	162.64709	 71.98984	 78.69686	 56.92624	 91.73057	  5.56826	162.88745	702.34003	 39.80	
  3.394	-69.283	162.71815	 79.40713	 71.41531	 57.64774	 90.82592	  5.58279	162.90697	703.15002	 39.80	
  3.400	-41.398	162.78224	 86.19608	 65.10079	 61.95309	 86.20233	  5.61171	162.93224	702.71002	 39.80	
  3.401	-14.021	162.86157	 90.02984	 61.81252	 68.96373	 79.41174	  5.65003	162.97298	703.10999	 39.80	
  3.401	 14.021	162.93391	 90.23302	 61.80043	 77.54910	 71.52376	  5.75185	163.00343	703.21002	 39.80	
  3.400	 41.398	162.96175	 86.85467	 65.07421	 84.24086	 64.97335	  5.79071	163.01744	702.87000	 39.80	
  3.394	 69.283	162.95854	 80.44185	 71.21412	 88.55404	 60.85648	  5.77741	162.99657	703.15997	 39.90	
  3.399	 96.763	162.98767	 72.88608	 78.63133	 89.62714	 59.96131	  5.77471	163.04581	703.09003	 39.90	
  3.397	124.529	162.91891	 65.86868	 85.84361	 86.87817	 62.48286	  5.69965	163.01402	702.98999	 39.90	
  3.388	152.325	162.92892	 60.82923	 91.15730	 80.94666	 68.19185	  5.61411	163.06180	702.97998	 39.90	
  5.099	161.165	162.21370	 51.84164	 99.39113	 80.27928	 66.97010	  4.99741	163.08731	703.15997	 39.90	
  5.109	142.013	162.27798	 55.62130	 95.25078	 87.47306	 60.13950	  5.08664	163.08574	703.09998	 39.90	
  5.095	123.033	162.41908	 61.49382	 88.96656	 92.86990	 55.14535	  5.15800	163.13338	703.04999	 40.00	
  5.105	104.191	162.41747	 68.33997	 81.55132	 96.52954	 52.08137	  5.15077	163.07632	703.20001	 40.00	
  5.093	 85.207	162.51337	 76.13374	 73.81693	 97.24994	 51.57717	  5.24388	163.15012	702.31000	 40.00	
  5.104	 66.290	162.51051	 83.96654	 66.33611	 95.18045	 53.38970	  5.24432	163.15373	703.13000	 40.00	
  5.094	 47.331	162.48082	 90.66890	 60.06985	 90.52368	 57.53719	  5.22234	163.13991	703.03998	 39.90	
  5.089	 28.397	162.44067	 95.66773	 55.59540	 84.26665	 63.40730	  5.17867	163.13383	702.34003	 39.90	
  5.096	  9.576	162.45526	 98.17921	 53.25039	 76.78091	 70.69198	  5.19170	163.16844	703.02002	 39.90	
  5.096	 -9.576	162.40421	 97.93531	 53.31478	 67.82167	 78.80304	  5.17405	163.19583	703.09998	 39.90	
  5.089	-28.397	162.32126	 95.03405	 55.72836	 60.50567	 86.28093	  5.06938	163.17900	703.09998	 40.00	
  5.094	-47.331	162.24756	 89.66521	 60.31084	 54.73855	 92.95322	  5.04157	163.19475	703.07001	 40.00	
  5.104	-66.290	162.24434	 82.62160	 66.50177	 50.68376	 97.76955	  5.03904	163.23163	703.03003	 40.00	
  5.093	-85.207	162.15973	 74.99674	 73.96857	 48.78023	 99.66807	  4.99951	163.20200	703.00000	 40.10	
  5.105	-104.191	162.17238	 67.26887	 81.97787	 49.30804	 98.97639	  4.97927	163.26157	703.09003	 40.20	
  5.095	-123.033	162.11446	 60.52401	 89.32877	 52.22518	 95.34319	  4.89782	163.20149	703.09998	 40.20	
  5.109	-142.013	162.18953	 54.97433	 95.51116	 57.25135	 89.55647	  4.90224	163.26379	703.02002	 40.20	
  5.099	-161.165	162.25769	 51.67891	 99.55216	 64.20080	 82.35470	  4.87809	163.26118	703.04999	 40.20	
  5.100	180.000	162.33806	 50.55003	100.82092	 72.44926	 74.66030	  4.87257	163.26791	703.13000	 40.20	
  6.800	180.000	161.08838	 42.25687	107.67081	 71.27001	 73.37915	  4.42303	163.28815	703.01001	 40.30	
  6.796	-166.229	161.00845	 42.81935	106.73280	 63.18768	 80.96952	  4.35921	163.28047	703.13000	 40.30	
  6.808	-152.311	160.94969	 45.28008	103.92780	 55.96324	 88.17865	  4.39221	163.27162	703.08002	 40.30	
  6.795	-138.383	160.89589	 49.20706	 99.47218	 50.56425	 95.21212	  4.41759	163.30739	703.07001	 40.30	
  6.792	-124.591	160.89745	 54.47721	 93.40471	 46.20310	100.73954	  4.41790	163.33253	703.09003	 40.30	
  6.787	-110.754	160.87888	 60.85377	 86.11549	 42.78849	104.48668	  4.46393	163.31319	703.09998	 40.40	
  6.800	-96.985	160.88237	 67.82737	 78.52509	 40.94757	106.63828	  4.51500	163.30424	703.07001	 40.40	
  6.800	-83.015	160.94421	 75.34904	 70.85625	 40.77480	106.72945	  4.51193	163.32498	703.15997	 40.30	
  6.787	-69.246	161.04079	 82.87878	 63.82837	 42.35540	104.87206	  4.54987	163.36182	703.15997	 40.40	
  6.792	-55.409	161.10576	 90.03804	 57.38923	 45.67243	101.31789	  4.55800	163.38055	703.25000	 40.40	
  6.795	-41.617	161.21887	 96.48788	 52.10757	 50.59243	 95.78157	  4.58499	163.37070	703.13000	 40.40	
  6.808	-27.689	161.31934	101.36468	 47.94415	 56.81830	 88.78178	  4.58941	163.41043	703.15002	 40.40	
  6.796	-13.771	161.38022	104.50837	 45.33839	 63.14450	 81.36401	  4.67538	163.39137	702.92999	 40.40	
  6.800	  0.000	161.47694	105.66117	 44.45345	 70.65674	 73.71732	  4.68631	163.41533	703.09003	 40.50	
  6.796	 13.771	161.53720	104.81559	 45.22213	 79.24839	 66.19184	  4.63609	163.39555	703.04999	 40.50	
  6.808	 27.689	161.60736	102.31441	 47.75872	 86.81359	 59.22993	  4.65140	163.44064	703.12000	 40.60	
  6.795	 41.617	161.59140	 97.90990	 51.86012	 93.29500	 53.11131	  4.59945	163.40263	703.15002	 40.50	
  6.792	 55.409	161.68015	 91.85634	 57.23547	 98.83514	 48.51724	  4.57054	163.43332	703.04999	 40.50	
  6.787	 69.246	161.69757	 84.90793	 63.62545	102.52172	 45.22206	  4.61879	163.41747	703.02002	 40.50	
  6.800	 83.015	161.68770	 77.07693	 70.76821	104.55123	 43.28556	  4.63011	163.43057	703.03003	 40.50	
  6.800	 96.985	161.64781	 69.32549	 78.36782	104.51591	 43.26730	  4.58404	163.41153	703.12000	 40.50	
  6.787	110.754	161.62903	 62.33950	 85.88187	102.60176	 44.98515	  4.61934	163.42221	702.97998	 40.50	
  6.792	124.591	161.53226	 55.95570	 92.99979	 98.62482	 48.35291	  4.75699	163.37758	703.08002	 40.50	
  6.795	138.383	161.46754	 50.53884	 99.21704	 93.01797	 53.06042	  4.71009	163.38799	703.12000	 40.50	
  6.808	152.311	161.44788	 46.10346	103.95370	 86.53619	 59.11368	  4.63192	163.50423	703.12000	 40.50	
  6.796	166.229	161.34177	 43.39980	106.80482	 79.17189	 65.98979	  4.47208	163.44846	703.13000	 40.50	
  8.491	168.704	159.66324	 35.02613	113.88424	 77.74204	 64.31605	  4.42996	163.49976	703.09998	 40.50	
  8.502	157.493	159.75333	 37.00657	111.39462	 85.35087	 57.26508	  4.56234	163.55411	702.28998	 40.50	
  8.494	146.194	159.87677	 40.58253	107.17543	 92.48306	 50.76606	  4.59059	163.52998	703.07001	 40.50	
  8.495	135.039	159.92725	 45.21451	102.00999	 99.01387	 45.32649	  4.55731	163.49925	703.09003	 40.50	
  8.487	123.723	160.00195	 51.05736	 95.49792	104.52792	 40.69236	  4.48192	163.51543	702.83002	 40.50	
  8.492	112.575	160.09969	 57.56290	 88.28902	108.49541	 37.41197	  4.29646	163.55086	702.94000	 40.50	
  8.510	101.220	160.18964	 64.88261	 80.57925	110.91819	 35.54877	  4.20402	163.52287	703.08002	 40.50	
  8.500	 90.000	160.24767	 71.92971	 73.09027	111.65220	 35.15019	  4.18911	163.53275	703.12000	 40.50	
  8.510	 78.780	160.29391	 79.90529	 65.57412	110.84785	 35.63539	  4.16241	163.59695	702.29999	 40.50	
  8.492	 67.425	160.28471	 87.82236	 58.45752	108.20744	 37.91434	  4.18263	163.57773	702.91998	 40.50	
  8.487	 56.277	160.27954	 94.75582	 52.28632	104.35772	 41.24544	  4.16345	163.59052	703.07001	 40.50	
  8.495	 44.961	160.23283	101.11068	 46.76418	 99.07755	 45.80187	  4.25135	163.58449	703.03003	 40.50	
  8.494	 33.806	160.15408	106.12432	 42.13304	 92.57260	 51.41653	  4.29604	163.55865	702.72998	 40.50	
  8.502	 22.507	160.09714	109.84215	 38.64708	 85.57685	 57.78136	  4.41360	163.58020	702.64001	 40.50	
  8.491	 11.296	160.02394	112.00311	 36.74440	 77.25709	 64.91051	  4.44576	163.55499	703.07001	 40.50	
  8.500	  0.000	159.96312	112.56412	 36.28286	 69.20345	 72.54097	  4.51306	163.54269	703.02002	 40.50	
  8.491	-11.296	159.87201	111.61062	 36.88844	 62.22887	 80.35070	  4.52786	163.56384	703.02002	 40.50	
  8.502	-22.507	159.75780	108.87451	 38.83135	 55.24825	 87.83051	  4.53812	163.55894	703.12000	 40.50	
  8.494	-33.806	159.68835	104.65700	 42.29262	 48.77096	 95.39011	  4.47104	163.56586	703.09003	 40.50	
  8.495	-44.961	159.59100	 99.43507	 46.94925	 43.09827	101.82958	  4.46298	163.59042	703.03003	 40.60	
  8.487	-56.277	159.56839	 92.52917	 52.71882	 38.40689	107.06007	  4.49750	163.59332	703.09003	 40.60	
  8.492	-67.425	159.47377	 85.32270	 59.03686	 34.87485	110.91241	  4.52154	163.62965	703.08002	 40.70	
  8.510	-78.780	159.43387	 77.59115	 66.31036	 32.80366	113.36747	  4.47698	163.63564	702.39001	 40.60	
  8.500	-90.000	159.39624	 69.95340	 73.78503	 31.97930	113.98636	  4.49132	163.61600	702.32001	 40.60	
  8.510	-101.220	159.29977	 62.64695	 81.30839	 32.19467	113.16461	  4.43647	163.60883	702.35999	 40.60	
  8.492	-112.575	159.28041	 55.43846	 89.07538	 35.16994	110.47026	  4.34236	163.58340	703.03998	 40.60	
  8.487	-123.723	159.29965	 49.32493	 96.13425	 38.50988	106.36680	  4.28413	163.61140	702.56000	 40.70	
  8.495	-135.039	159.37543	 43.67887	102.69172	 43.19327	101.03374	  4.26502	163.60522	703.09003	 40.70	
  8.494	-146.194	159.42256	 39.20855	107.65111	 48.49118	 94.56198	  4.25831	163.61096	702.66998	 40.70	
  8.502	-157.493	159.52116	 36.00544	111.51191	 54.67917	 86.96622	  4.26249	163.65352	702.73999	 40.70	
  8.491	-168.704	159.63818	 34.36292	113.99027	 61.72937	 79.69424	  4.28246	163.66161	702.31000	 40.80	
  8.500	180.000	159.72185	 33.95824	114.97166	 69.98013	 72.00996	  4.32797	163.67340	702.40002	 40.80	
 10.200	180.000	157.52232	 25.58197	121.20319	 67.89375	 70.11069	  4.55366	163.73045	702.31000	 40.80	
 10.191	-170.497	157.38512	 25.65187	120.54449	 59.71070	 77.81802	  4.51436	163.67781	702.26001	 40.80	
 10.210	-161.034	157.25172	 26.78139	118.76093	 52.60524	 85.41599	  4.46477	163.65938	702.28998	 40.80	
 10.194	-151.526	157.20033	 29.42380	115.31268	 45.91252	 93.14495	  4.42666	163.67969	702.32001	 40.80	
 10.190	-142.105	157.09778	 33.00237	110.67251	 39.95423	100.28587	  4.45326	163.65512	702.28003	 40.90	
 10.215	-132.646	157.01025	 37.34643	105.14669	 34.76099	106.50176	  4.47542	163.69086	702.50000	 41.00	
 10.203	-123.092	156.96324	 43.46840	 98.47488	 30.38416	111.77948	  4.55970	163.66983	702.34003	 41.00	
 10.192	-113.678	156.94327	 49.96737	 91.14500	 27.16666	115.95921	  4.60239	163.64543	702.25000	 41.00	
 10.208	-104.249	156.91197	 56.88972	 83.56155	 24.06516	118.80907	  4.64432	163.63501	702.27002	 41.00	
 10.210	-94.801	156.93025	 64.16176	 75.65695	 22.93185	120.34227	  4.65004	163.61887	702.27002	 41.00	
 10.210	-85.199	157.05496	 71.61108	 68.06158	 23.41460	120.40796	  4.70541	163.69810	702.31000	 41.00	
 10.208	-75.751	157.07965	 79.32510	 60.63585	 24.42054	119.16934	  4.66930	163.69299	702.29999	 41.00	
 10.192	-66.322	157.19189	 87.08223	 53.78746	 26.68628	116.55456	  4.64720	163.70287	702.72998	 41.00	
 10.203	-56.908	157.19543	 94.76218	 47.27849	 29.61231	112.62084	  4.67849	163.65614	702.39001	 41.00	
 10.215	-47.354	157.30789	101.65735	 41.49649	 33.85825	107.41047	  4.63332	163.65143	703.09998	 41.00	
 10.190	-37.895	157.46655	107.39926	 36.32278	 39.62534	101.39999	  4.67353	163.63852	703.03998	 41.00	
 10.194	-28.474	157.59065	112.34635	 32.80891	 46.47705	 94.09844	  4.69228	163.64583	703.12000	 41.00	
 10.210	-18.966	157.64490	116.08910	 30.19988	 53.26112	 86.27066	  4.68765	163.65070	703.07001	 41.00	
 10.191	 -9.503	157.83603	118.29448	 28.76563	 60.70133	 78.67798	  4.69747	163.69748	703.17999	 41.00	
 10.200	  0.000	157.89183	119.24271	 28.28087	 67.78043	 70.83088	  4.61198	163.66704	703.08002	 41.10	
 10.191	  9.503	158.01424	118.76910	 28.65472	 75.57152	 63.25772	  4.54908	163.70113	703.00000	 41.10	
 10.210	 18.966	158.02345	116.96149	 29.98254	 83.90514	 55.95819	  4.53132	163.68629	702.45001	 41.10	
 10.194	 28.474	158.14909	113.62327	 32.76113	 91.50869	 49.24972	  4.41520	163.72708	702.29999	 41.10	
 10.190	 37.895	158.21812	109.27177	 36.57899	 98.32291	 43.00115	  4.24095	163.72701	702.34003	 41.10	
 10.215	 47.354	158.21373	103.83062	 41.17877	104.66077	 37.48285	  4.09007	163.70070	702.96997	 41.10	
 10.203	 56.908	158.30577	 97.22719	 47.00947	109.83753	 33.19335	  4.05767	163.73317	702.31000	 41.20	
 10.192	 66.322	158.30688	 90.10258	 53.18586	113.83678	 29.99379	  4.07995	163.66275	702.32001	 41.10	
 10.208	 75.751	158.36511	 82.37711	 60.06100	116.91422	 27.87931	  4.10206	163.72900	702.15002	 41.10	
 10.210	 85.199	158.33551	 74.27454	 67.46720	118.13552	 27.02889	  4.10984	163.71393	702.20001	 41.20	
 10.210	 94.801	158.34894	 67.07789	 75.09554	118.16103	 26.87296	  4.14372	163.76215	702.72998	 41.20	
 10.208	104.249	158.28214	 59.56424	 82.75580	116.85635	 27.79939	  4.18713	163.77307	702.28998	 41.20	
 10.192	113.678	158.19252	 52.42881	 90.45062	114.05008	 29.90709	  4.33939	163.76805	702.19000	 41.20	
 10.203	123.092	158.11253	 45.97327	 97.71342	110.01968	 33.08273	  4.49912	163.75516	702.17999	 41.30	
 10.215	132.646	157.98834	 39.24949	104.45634	104.82626	 37.23839	  4.65009	163.77048	702.22998	 41.30	
 10.190	142.105	157.92236	 34.25347	110.18891	 98.22011	 42.45622	  4.85489	163.74986	702.25000	 41.40	
 10.194	151.526	157.78648	 30.62361	115.03601	 91.22173	 48.50723	  4.85326	163.75179	702.21997	 41.40	
 10.210	161.034	157.69963	 28.09729	118.59862	 83.79279	 55.27066	  4.73548	163.77832	702.21002	 41.40	
 10.191	170.497	157.69098	 26.50040	120.48779	 76.06696	 62.56348	  4.63253	163.78737	702.21997	 41.40	
 11.899	171.783	154.87198	 17.25726	126.76557	 73.55956	 60.42484	  4.88494	163.79597	702.28998	 41.40	
 11.890	163.610	154.98466	 18.70781	124.73623	 81.57368	 53.19703	  4.97261	163.81047	702.26001	 41.40	
 11.889	155.445	155.04956	 20.96808	121.66187	 89.21470	 46.11597	  5.12183	163.78607	702.29999	 41.40	
 11.909	147.299	155.08501	 23.72134	117.76333	 96.59108	 39.55297	  5.14948	163.79031	702.33002	 41.40	
 11.902	139.148	155.23715	 28.13227	112.49256	103.57359	 33.76507	  5.03506	163.79601	702.31000	 41.40	
 11.894	130.867	155.34319	 34.28121	106.22609	109.79671	 28.96980	  4.69316	163.77814	702.32001	 41.40	
 11.897	122.732	155.40530	 40.40606	 99.43867	114.86401	 24.98422	  4.56261	163.77472	702.25000	 41.40	
 11.903	114.597	155.50198	 46.81475	 92.08562	119.05481	 21.87505	  4.51295	163.77795	702.21997	 41.40	
 11.893	106.346	155.58392	 53.97997	 84.16970	122.26979	 19.51816	  4.56255	163.72789	702.25000	 41.40	
 11.892	 98.155	155.70618	 61.59752	 76.42429	124.13184	 18.23187	  4.39670	163.77129	702.28003	 41.40	
 11.900	 90.000	155.79730	 68.94079	 69.00376	124.71472	 18.15225	  4.37741	163.78963	702.16998	 41.40	
 11.892	 81.845	155.79132	 76.31243	 61.56907	124.13279	 18.41594	  4.33652	163.79041	702.16998	 41.40	
 11.893	 73.654	155.80789	 84.43491	 54.36157	122.09734	 19.59145	  4.26725	163.79622	702.28003	 41.40	
 11.903	 65.403	155.77022	 92.28719	 47.41057	119.01690	 21.92570	  4.29327	163.78673	702.20001	 41.40	
 11.897	 57.268	155.73683	 99.54086	 41.10887	114.77682	 25.07197	  4.39424	163.77704	702.22998	 41.40	
 11.894	 49.133	155.70267	106.20309	 35.41635	109.52255	 29.13868	  4.47421	163.79677	702.22998	 41.40	
 11.902	 40.852	155.70633	112.01974	 30.71980	103.50936	 34.41058	  4.44131	163.83882	702.21002	 41.50	
 11.909	 32.701	155.58975	116.95650	 26.50983	 96.58817	 40.58859	  4.58265	163.80185	702.27002	 41.60	
 11.889	 24.555	155.54785	120.71009	 23.19933	 89.46387	 47.10465	  4.69542	163.81662	702.21997	 41.60	
 11.890	 16.390	155.49393	123.36319	 20.74817	 81.69296	 54.12111	  4.78595	163.80946	702.19000	 41.70	
 11.899	  8.217	155.40364	125.07923	 19.39067	 73.86822	 61.34076	  4.80651	163.83441	702.26001	 41.70	
 11.900	  0.000	155.36040	125.36959	 19.26160	 66.20905	 68.97047	  4.84426	163.82159	702.17999	 41.70	
 11.899	 -8.217	155.19141	124.69376	 19.25631	 58.61451	 76.58010	  4.85562	163.84062	702.17999	 41.60	
 11.890	-16.390	155.11336	122.51142	 20.68665	 51.19945	 84.42931	  4.89118	163.84872	702.21002	 41.60	
 11.889	-24.555	154.99495	119.40495	 23.10839	 44.14302	 92.32218	  4.91912	163.86267	702.16998	 41.60	
 11.909	-32.701	154.73532	115.07466	 26.42426	 37.25121	100.01881	  4.93930	163.81415	702.13000	 41.70	
 11.902	-40.852	154.68169	109.64864	 30.97958	 31.49409	106.76384	  4.96079	163.84921	702.32001	 41.60	
 11.894	-49.133	154.54674	103.32813	 36.00219	 26.60660	112.83974	  4.86631	163.85048	702.12000	 41.60	
 11.897	-57.268	154.44217	 96.30712	 41.75504	 22.56400	117.93569	  4.95635	163.83232	702.25000	 41.60	
 11.903	-65.403	154.32767	 88.82566	 48.08377	 19.27937	121.70761	  4.89953	163.84386	702.29999	 41.60	
 11.893	-73.654	154.31360	 80.38608	 55.18573	 17.10671	124.56592	  5.00097	163.83182	702.32001	 41.60	
 11.892	-81.845	154.27252	 72.43993	 62.55210	 15.83421	126.28195	  4.88478	163.86282	702.20001	 41.60	
 11.900	-90.000	154.22252	 65.43504	 69.85745	 15.43447	126.84414	  4.91078	163.85681	702.16998	 41.60	
 11.892	-98.155	154.16188	 58.14673	 77.41746	 15.38525	126.12302	  4.94303	163.84285	702.22998	 41.60	
 11.893	-106.346	154.17268	 50.85488	 85.42982	 16.74655	124.06551	  4.93512	163.85274	702.25000	 41.60	
 11.903	-114.597	154.17029	 43.71397	 93.10193	 19.01494	120.97639	  4.96636	163.85147	702.19000	 41.60	
 11.897	-122.732	154.26428	 36.76581	100.49840	 22.21174	116.87784	  4.89290	163.89003	702.17999	 41.60	
 11.894	-130.867	154.31273	 31.02529	107.15100	 26.19670	111.53890	  4.83061	163.85425	702.23999	 41.60	
 11.902	-139.148	154.39803	 26.34100	113.36628	 31.32431	105.40346	  4.79274	163.88501	702.26001	 41.60	
 11.909	-147.299	154.37862	 22.63994	118.30599	 37.05369	 98.52212	  4.66522	163.77876	702.25000	 41.70	
 11.889	-155.445	154.54390	 19.87901	122.12684	 43.45858	 91.01846	  4.70189	163.82628	702.35999	 41.70	
 11.890	-163.610	154.66367	 17.71097	124.96266	 50.52079	 83.46341	  4.81589	163.86732	702.28003	 41.80	
 11.899	-171.783	154.66444	 16.43752	126.91730	 57.70691	 75.67523	  4.80552	163.80284	702.35999	 41.80	
 11.900	180.000	154.84308	 16.64423	127.54158	 65.36823	 67.97511	  4.85946	163.84872	702.34003	 41.80	
 13.600	180.000	151.56410	  7.36096	133.07164	 62.66820	 65.45966	  5.05291	163.85988	702.21002	 41.80	
 13.608	-172.853	151.42708	  7.11490	132.65251	 55.36316	 72.67022	  5.10974	163.85811	702.22998	 41.80	
 13.611	-165.583	151.39925	  8.16499	131.09427	 47.67701	 80.72847	  5.07191	163.88535	702.32001	 41.80	
 13.601	-158.353	151.28963	 10.02469	128.46088	 40.53856	 88.55489	  4.89113	163.87029	702.31000	 41.80	
 13.609	-151.210	151.21536	 12.60555	124.79073	 33.96891	 96.26786	  4.93612	163.88428	702.26001	 41.80	
 13.611	-143.999	151.11421	 15.74706	120.54779	 27.53078	103.64491	  4.89111	163.90839	702.38000	 41.70	
 13.601	-136.825	151.04230	 19.64682	115.11833	 22.19630	110.27531	  4.98147	163.92787	702.35999	 41.80	
 13.596	-129.640	150.93906	 24.44036	108.73178	 17.65133	116.21803	  5.06272	163.89609	702.33002	 41.80	
