FileType=PCF
NHL=14
Date=03/20/19	10:15:04
Facility=APL
Serial=16071-7
Customer=NASA
NP=6
Mach=0.300000
Calibration=1:1
CalPts=490
TstPts=95
PortNumbering=AP Standard
Units=Torr C m/s kg/m^3 deg mm 
Theta[deg]	Phi[deg]	P1[Torr]	P2[Torr]	P3[Torr]	P4[Torr]	P5[Torr]	P6[Torr]	Pt[Torr]	Ps[Abs,Torr]	Ts[C]	
  0.000	  0.000	 42.64957	 17.59251	 18.75866	 18.38184	 17.60932	  0.78816	 42.70509	712.90997	 22.70	
  1.691	128.401	 42.63496	 16.14699	 20.06097	 20.22353	 15.65725	  0.74127	 42.70264	712.90002	 22.70	
  1.692	 77.194	 42.66370	 18.13028	 18.05828	 20.66908	 15.29047	  0.79964	 42.74597	712.90997	 22.80	
  1.699	 26.182	 42.67124	 19.73458	 16.50331	 19.34962	 16.57672	  0.83762	 42.72643	712.98999	 22.80	
  1.699	-26.182	 42.66428	 19.69955	 16.54766	 17.24993	 18.64205	  0.79797	 42.71473	712.90997	 22.80	
  1.692	-77.194	 42.66949	 18.03742	 18.16786	 16.01050	 19.85500	  0.74997	 42.72458	712.89001	 22.80	
  1.691	-128.401	 42.65020	 16.08791	 20.18318	 16.50691	 19.34317	  0.69810	 42.72247	712.91998	 22.90	
  1.700	180.000	 42.65338	 15.24696	 21.08990	 18.31736	 17.50136	  0.69927	 42.73614	712.94000	 22.90	
  3.400	180.000	 42.54433	 12.79186	 23.34130	 18.17279	 17.25783	  0.53702	 42.72151	712.97998	 22.90	
  3.388	-152.325	 42.57298	 13.29706	 22.81129	 16.01432	 19.44274	  0.52677	 42.74242	712.90002	 22.90	
  3.397	-124.529	 42.58443	 14.72877	 21.25125	 14.43093	 21.24108	  0.53713	 42.72428	712.90002	 23.00	
  3.399	-96.763	 42.61106	 16.74937	 19.17489	 13.66972	 22.17132	  0.58089	 42.73537	712.91998	 23.00	
  3.394	-69.283	 42.63247	 18.98190	 16.98401	 13.85733	 21.96437	  0.62722	 42.74337	712.90002	 23.00	
  3.400	-41.398	 42.64116	 20.97779	 15.09644	 15.03859	 20.65824	  0.70634	 42.73730	712.90002	 23.00	
  3.401	-14.021	 42.64847	 22.13774	 14.00316	 16.90657	 18.65749	  0.76919	 42.73874	712.84998	 23.10	
  3.401	 14.021	 42.63894	 22.19551	 13.92279	 19.20992	 16.37603	  0.79681	 42.73831	712.85999	 23.10	
  3.400	 41.398	 42.61699	 21.12378	 14.90675	 21.29045	 14.37948	  0.79117	 42.73530	712.90997	 23.10	
  3.394	 69.283	 42.61728	 19.16191	 16.67516	 22.68663	 13.10157	  0.74096	 42.74842	712.79999	 23.10	
  3.399	 96.763	 42.57340	 16.90675	 18.84651	 23.01335	 12.76277	  0.68408	 42.73378	712.84003	 23.20	
  3.397	124.529	 42.56871	 14.85817	 21.02826	 22.21285	 13.46107	  0.61528	 42.73623	712.94000	 23.20	
  3.388	152.325	 42.58080	 13.35451	 22.67647	 20.47071	 15.10454	  0.56378	 42.75317	712.87000	 23.20	
  5.099	161.165	 42.30733	 10.69132	 24.94921	 20.27499	 14.65080	  0.31425	 42.74797	712.89001	 23.20	
  5.109	142.013	 42.31226	 11.73806	 23.70802	 22.44190	 12.67683	  0.31379	 42.74760	712.94000	 23.20	
  5.095	123.033	 42.33099	 13.45720	 21.86050	 24.04935	 11.24586	  0.43108	 42.75851	712.92999	 23.30	
  5.105	104.191	 42.33582	 15.52542	 19.65468	 24.96968	 10.44817	  0.47642	 42.73835	712.85999	 23.30	
  5.093	 85.207	 42.34567	 17.80203	 17.33108	 25.10074	 10.36817	  0.54542	 42.73682	712.90002	 23.30	
  5.104	 66.290	 42.37834	 20.13389	 15.17418	 24.51002	 10.91407	  0.59880	 42.74692	712.90997	 23.30	
  5.094	 47.331	 42.42521	 22.19539	 13.38977	 23.15569	 12.13932	  0.65583	 42.75876	712.83002	 23.30	
  5.089	 28.397	 42.43133	 23.67663	 12.11923	 21.21618	 13.91678	  0.69156	 42.74881	712.89001	 23.40	
  5.096	  9.576	 42.43976	 24.44552	 11.47293	 18.93576	 16.10234	  0.68325	 42.72390	712.78003	 23.40	
  5.096	 -9.576	 42.48856	 24.38214	 11.52277	 16.56719	 18.49143	  0.64157	 42.76044	712.84003	 23.40	
  5.089	-28.397	 42.48103	 23.50798	 12.30536	 14.54985	 20.70267	  0.59535	 42.75768	712.90002	 23.40	
  5.094	-47.331	 42.47699	 21.97084	 13.74363	 12.84803	 22.61534	  0.51602	 42.76309	712.89001	 23.50	
  5.104	-66.290	 42.45404	 19.89140	 15.65204	 11.71249	 23.92990	  0.44222	 42.75054	712.89001	 23.50	
  5.093	-85.207	 42.42907	 17.59452	 17.85584	 11.26408	 24.43482	  0.37620	 42.74413	712.81000	 23.50	
  5.105	-104.191	 42.40068	 15.31986	 20.16582	 11.43677	 24.17393	  0.32438	 42.74866	712.78998	 23.50	
  5.095	-123.033	 42.37103	 13.30249	 22.26534	 12.29420	 23.06403	  0.31063	 42.73320	712.77002	 23.50	
  5.109	-142.013	 42.33295	 11.64143	 23.97444	 13.77128	 21.35368	  0.30325	 42.73369	712.77002	 23.90	
  5.099	-161.165	 42.32067	 10.62551	 25.05860	 15.70441	 19.16190	  0.28539	 42.72540	712.75000	 23.90	
  5.100	180.000	 42.31529	 10.31709	 25.41464	 17.96203	 16.89844	  0.31617	 42.73912	712.78998	 23.90	
  6.800	180.000	 41.91849	  7.88114	 27.43074	 17.56517	 16.44712	 -0.00070	 42.74580	712.76001	 23.90	
  6.796	-166.229	 41.92407	  8.10027	 27.20626	 15.40630	 18.64187	 -0.08247	 42.72778	712.84003	 24.00	
  6.808	-152.311	 41.94815	  8.76237	 26.42609	 13.39188	 20.88063	  0.00015	 42.75051	712.90002	 24.00	
  6.795	-138.383	 41.96026	  9.92882	 25.16803	 11.70075	 22.87832	  0.00980	 42.73559	712.78003	 24.00	
  6.792	-124.591	 41.99795	 11.47220	 23.50086	 10.34708	 24.51431	 -0.00939	 42.75142	712.84003	 24.00	
  6.787	-110.754	 42.04077	 13.38654	 21.43387	  9.44570	 25.72251	  0.00898	 42.74895	712.75000	 24.00	
  6.800	-96.985	 42.08058	 15.46635	 19.25851	  8.91974	 26.41636	  0.03193	 42.77293	712.82001	 24.10	
  6.800	-83.015	 42.09023	 17.72030	 16.98706	  8.90441	 26.47421	  0.07416	 42.75119	712.85999	 24.10	
  6.787	-69.246	 42.11404	 19.94961	 14.93138	  9.35670	 25.93965	  0.12352	 42.75018	712.87000	 24.10	
  6.792	-55.409	 42.11714	 22.07165	 13.00108	 10.18280	 24.90718	  0.19294	 42.74844	712.73999	 24.10	
  6.795	-41.617	 42.13416	 23.89828	 11.38366	 11.50069	 23.39612	  0.22880	 42.75224	712.82001	 24.10	
  6.808	-27.689	 42.12957	 25.34144	 10.07524	 13.19854	 21.43717	  0.33431	 42.74728	712.84003	 24.10	
  6.796	-13.771	 42.12962	 26.24542	  9.26037	 15.20915	 19.23581	  0.41634	 42.75106	712.78998	 24.10	
  6.800	  0.000	 42.11988	 26.61381	  8.97224	 17.30541	 17.00904	  0.48051	 42.76744	712.94000	 24.20	
  6.796	 13.771	 42.10605	 26.37001	  9.17766	 19.61901	 14.75378	  0.49364	 42.76067	712.84003	 24.20	
  6.808	 27.689	 42.07817	 25.57523	  9.78527	 21.87381	 12.66139	  0.50724	 42.75496	712.83002	 24.20	
  6.795	 41.617	 42.06058	 24.20764	 10.95690	 23.80492	 10.87951	  0.42950	 42.75299	712.82001	 24.20	
  6.792	 55.409	 42.01455	 22.40095	 12.43110	 25.34351	  9.46365	  0.33794	 42.72050	712.83002	 24.20	
  6.787	 69.246	 41.99310	 20.28569	 14.25262	 26.49137	  8.47475	  0.37320	 42.73701	712.92999	 24.20	
  6.800	 83.015	 41.96540	 18.01764	 16.29405	 27.09729	  7.92241	  0.19655	 42.73667	712.88000	 24.30	
  6.800	 96.985	 41.95132	 15.74845	 18.55454	 27.17486	  7.87908	  0.25704	 42.74381	712.88000	 24.30	
  6.787	110.754	 41.94174	 13.64110	 20.80253	 26.59988	  8.30739	  0.07650	 42.76193	712.94000	 24.30	
  6.792	124.591	 41.91320	 11.67491	 22.91496	 25.55454	  9.20155	  0.16299	 42.75117	712.85999	 24.30	
  6.795	138.383	 41.92046	 10.11593	 24.71419	 24.01402	 10.54776	 -0.00894	 42.76969	712.78998	 24.30	
  6.808	152.311	 41.90160	  8.87310	 26.17572	 22.07831	 12.20843	 -0.00137	 42.75323	712.85999	 24.40	
  6.796	166.229	 41.88007	  8.16453	 27.06130	 19.84060	 14.23419	 -0.05821	 42.73019	712.84003	 24.40	
  8.491	168.704	 41.33393	  5.63595	 29.04613	 19.36798	 13.58698	 -0.47447	 42.74135	712.77002	 24.40	
  8.502	157.493	 41.31221	  6.18869	 28.24935	 21.70843	 11.49762	 -0.33418	 42.75334	712.79999	 24.40	
  8.494	146.194	 41.32731	  7.17291	 27.00076	 23.80252	  9.70469	 -0.43312	 42.74516	712.94000	 24.40	
  8.495	135.039	 41.32190	  8.48809	 25.39479	 25.64519	  8.14707	 -0.23338	 42.74310	712.85999	 24.40	
  8.487	123.723	 41.34235	 10.12405	 23.47888	 27.14515	  6.86949	 -0.17650	 42.75548	712.90002	 24.40	
  8.492	112.575	 41.34668	 12.01514	 21.38199	 28.27116	  5.96255	 -0.32870	 42.74327	712.91998	 24.40	
  8.510	101.220	 41.37471	 14.19631	 19.07382	 28.97624	  5.45606	 -0.31795	 42.74269	712.92999	 24.50	
  8.500	 90.000	 41.41234	 16.41281	 16.81529	 29.17003	  5.33360	 -0.20080	 42.74699	712.82001	 24.50	
  8.510	 78.780	 41.44071	 18.70715	 14.61646	 28.90551	  5.55245	 -0.19227	 42.74820	712.85999	 24.50	
  8.492	 67.425	 41.44391	 21.02153	 12.54202	 28.12683	  6.16727	 -0.18824	 42.72508	712.91998	 24.50	
  8.487	 56.277	 41.49978	 23.15814	 10.81022	 27.00729	  7.15866	 -0.03829	 42.75655	712.82001	 24.50	
  8.495	 44.961	 41.52807	 25.06370	  9.27851	 25.44425	  8.53475	 -0.03892	 42.74308	712.84003	 24.50	
  8.494	 33.806	 41.55592	 26.59171	  8.06193	 23.60325	 10.22237	  0.22984	 42.75894	712.92999	 24.50	
  8.502	 22.507	 41.54732	 27.72900	  7.13818	 21.49294	 12.08097	  0.06624	 42.72904	712.92999	 24.50	
  8.491	 11.296	 41.59010	 28.41908	  6.64112	 19.18134	 14.25379	  0.24091	 42.75331	712.84003	 24.60	
  8.500	  0.000	 41.59338	 28.60958	  6.48270	 16.80504	 16.54826	  0.06516	 42.75019	712.90997	 24.60	
  8.491	-11.296	 41.60480	 28.30758	  6.72037	 14.69632	 18.84499	  0.13679	 42.74610	712.90002	 24.60	
  8.502	-22.507	 41.61504	 27.54099	  7.41028	 12.60285	 21.12222	  0.04120	 42.75643	712.95001	 24.60	
  8.494	-33.806	 41.61341	 26.27765	  8.48848	 10.71170	 23.25944	 -0.16702	 42.73008	712.83002	 24.60	
  8.495	-44.961	 41.62828	 24.69189	  9.85556	  9.21729	 25.09036	 -0.18194	 42.75999	712.70001	 24.60	
  8.487	-56.277	 41.59866	 22.77459	 11.49588	  7.96283	 26.58400	 -0.19051	 42.74641	712.69000	 24.60	
  8.492	-67.425	 41.58359	 20.64886	 13.33800	  7.09199	 27.66016	 -0.36556	 42.73709	712.76001	 24.60	
  8.510	-78.780	 41.54795	 18.29204	 15.47679	  6.53194	 28.37034	 -0.34481	 42.73387	712.84998	 24.60	
  8.500	-90.000	 41.53701	 16.04465	 17.73779	  6.39054	 28.53288	 -0.44086	 42.73669	712.85999	 24.70	
  8.510	-101.220	 41.49971	 13.84440	 20.03439	  6.55050	 28.22522	 -0.38176	 42.73839	712.89001	 24.70	
  8.492	-112.575	 41.47728	 11.71937	 22.27949	  7.15437	 27.39224	 -0.40721	 42.73014	712.85999	 24.70	
  8.487	-123.723	 41.45144	  9.89505	 24.28234	  8.11904	 26.13953	 -0.46929	 42.73363	712.89001	 24.70	
  8.495	-135.039	 41.43442	  8.28062	 26.04996	  9.41427	 24.52257	 -0.37863	 42.73878	712.92999	 24.70	
  8.494	-146.194	 41.40699	  7.04803	 27.49734	 10.89423	 22.65852	 -0.47634	 42.73811	712.88000	 24.70	
  8.502	-157.493	 41.38773	  6.12426	 28.56757	 12.75538	 20.45739	 -0.47355	 42.73650	712.84998	 24.70	
  8.491	-168.704	 41.36490	  5.63136	 29.19953	 14.85135	 18.16477	 -0.50419	 42.72775	712.85999	 24.70	
  8.500	180.000	 41.35912	  5.43266	 29.39190	 16.97668	 15.88671	 -0.42588	 42.74450	712.94000	 24.70	
 10.200	180.000	 40.64013	  2.91688	 31.22746	 16.36925	 15.23095	 -0.90634	 42.75360	712.96997	 24.80	
 10.191	-170.497	 40.65649	  3.08986	 31.09048	 14.24850	 17.52692	 -0.93506	 42.73415	712.84003	 24.80	
 10.210	-161.034	 40.66282	  3.48953	 30.54772	 12.14122	 19.85239	 -0.93307	 42.73429	712.82001	 24.80	
 10.194	-151.526	 40.68524	  4.22254	 29.62457	 10.13158	 22.11201	 -0.91534	 42.72825	712.92999	 24.80	
 10.190	-142.105	 40.72133	  5.24459	 28.37438	  8.46765	 24.17992	 -0.89041	 42.73907	712.82001	 24.80	
 10.215	-132.646	 40.74317	  6.56360	 26.83181	  7.01068	 26.05663	 -0.83236	 42.74126	712.96002	 24.80	
 10.203	-123.092	 40.73335	  8.18068	 24.97957	  5.77714	 27.65651	 -0.94156	 42.71632	712.97998	 24.80	
 10.192	-113.678	 40.79696	  9.98347	 22.95076	  4.84631	 28.92870	 -0.93063	 42.75760	712.89001	 24.80	
 10.208	-104.249	 40.77763	 11.97768	 20.69254	  4.21216	 29.81053	 -0.90833	 42.71151	712.84998	 24.80	
 10.210	-94.801	 40.82557	 14.20411	 18.40692	  3.87770	 30.33503	 -0.88844	 42.73746	712.91998	 24.90	
 10.210	-85.199	 40.85035	 16.49474	 16.07813	  3.85509	 30.43592	 -0.77368	 42.73953	712.88000	 24.90	
 10.208	-75.751	 40.87732	 18.81841	 13.86849	  4.17317	 30.07961	 -0.87050	 42.73536	712.88000	 24.90	
 10.192	-66.322	 40.89465	 21.13191	 11.75136	  4.77021	 29.29874	 -0.82982	 42.73242	712.84003	 24.90	
 10.203	-56.908	 40.88398	 23.27307	  9.89023	  5.60134	 28.14837	 -0.77329	 42.70522	712.78998	 24.90	
 10.215	-47.354	 40.91773	 25.32088	  8.16663	  6.77379	 26.66822	 -0.57393	 42.73698	712.73999	 24.90	
 10.190	-37.895	 40.94788	 27.02614	  6.83040	  8.24644	 24.87555	 -0.67287	 42.75277	712.78003	 24.90	
 10.194	-28.474	 40.92609	 28.41530	  5.63978	  9.90487	 22.86088	 -0.61245	 42.73700	712.82001	 24.90	
 10.210	-18.966	 40.92926	 29.51604	  4.73214	 11.86274	 20.62650	 -0.52221	 42.74963	712.91998	 24.90	
 10.191	 -9.503	 40.90578	 30.18148	  4.14533	 14.02312	 18.26377	 -0.34592	 42.71280	712.89001	 24.90	
 10.200	  0.000	 40.90051	 30.46451	  3.88543	 16.17035	 15.94748	 -0.37264	 42.72769	712.90002	 25.00	
 10.191	  9.503	 40.88778	 30.29974	  4.06749	 18.49094	 13.62097	 -0.33222	 42.72864	712.82001	 25.00	
 10.210	 18.966	 40.86108	 29.72224	  4.47451	 20.88350	 11.42316	 -0.36527	 42.73199	712.84998	 25.00	
 10.194	 28.474	 40.86662	 28.72679	  5.24173	 23.10972	  9.46073	 -0.34461	 42.73763	712.82001	 25.00	
 10.190	 37.895	 40.85011	 27.40856	  6.23807	 25.14453	  7.70742	 -0.29831	 42.74270	712.83002	 25.00	
 10.215	 47.354	 40.79415	 25.72172	  7.52155	 26.95043	  6.12038	 -0.51407	 42.71399	712.79999	 25.00	
 10.203	 56.908	 40.77031	 23.76103	  9.03572	 28.45758	  4.81155	 -0.61285	 42.71296	712.67999	 25.00	
 10.192	 66.322	 40.75788	 21.60639	 10.80518	 29.63291	  3.90781	 -0.62613	 42.70875	712.78998	 25.00	
 10.208	 75.751	 40.73670	 19.30208	 12.77192	 30.45874	  3.22901	 -0.60159	 42.72157	712.71002	 25.00	
 10.210	 85.199	 40.70580	 16.99221	 14.96458	 30.93608	  2.85342	 -0.64519	 42.73367	712.75000	 25.00	
 10.210	 94.801	 40.68671	 14.68375	 17.26041	 30.96932	  2.80084	 -0.71675	 42.73466	712.76001	 25.00	
 10.208	104.249	 40.63930	 12.43052	 19.57556	 30.57478	  3.12080	 -0.75237	 42.72243	712.78998	 25.00	
 10.192	113.678	 40.64353	 10.35708	 21.85026	 29.75115	  3.67827	 -0.77628	 42.74182	712.84003	 25.00	
 10.203	123.092	 40.58312	  8.44755	 23.97263	 28.61966	  4.48364	 -0.78490	 42.72800	712.78998	 25.00	
 10.215	132.646	 40.58311	  6.77631	 25.97287	 27.13278	  5.64752	 -0.81921	 42.73543	712.90002	 25.10	
 10.190	142.105	 40.55363	  5.42209	 27.68732	 25.31938	  7.14710	 -0.86157	 42.70390	712.78998	 25.10	
 10.194	151.526	 40.56834	  4.36118	 29.12922	 23.28978	  8.87809	 -0.87442	 42.73390	712.95001	 25.10	
 10.210	161.034	 40.52327	  3.56487	 30.18714	 21.08182	 10.73978	 -0.87572	 42.69126	712.89001	 25.10	
 10.191	170.497	 40.58134	  3.11081	 30.90391	 18.72261	 12.87661	 -0.89169	 42.71270	712.88000	 25.10	
 11.899	171.783	 39.69750	  0.52725	 32.66136	 17.96371	 12.12110	 -1.25386	 42.71487	712.87000	 25.10	
 11.890	163.610	 39.67039	  0.93771	 32.00431	 20.37026	  9.96575	 -1.23761	 42.71494	712.81000	 25.10	
 11.889	155.445	 39.68724	  1.59339	 31.07020	 22.64333	  8.06369	 -1.26673	 42.73420	712.91998	 25.10	
 11.909	147.299	 39.65845	  2.46466	 29.79184	 24.81752	  6.21085	 -1.31506	 42.71701	712.81000	 25.10	
 11.902	139.148	 39.66783	  3.59269	 28.22782	 26.76545	  4.58849	 -1.28009	 42.72382	712.84998	 25.10	
 11.894	130.867	 39.67998	  5.04398	 26.38432	 28.44730	  3.22842	 -1.22698	 42.71330	712.84998	 25.10	
 11.897	122.732	 39.71677	  6.73953	 24.36771	 29.92050	  2.16351	 -1.20060	 42.71067	712.90002	 25.10	
 11.903	114.597	 39.74557	  8.58255	 22.20474	 31.15818	  1.29625	 -1.20594	 42.73287	712.90002	 25.20	
 11.893	106.346	 39.76261	 10.63559	 19.88835	 32.04803	  0.71800	 -1.20049	 42.71529	712.82001	 25.20	
 11.892	 98.155	 39.79871	 12.85439	 17.53871	 32.61618	  0.34895	 -1.14370	 42.71835	712.71002	 25.20	
 11.900	 90.000	 39.82561	 15.11462	 15.25948	 32.75592	  0.23719	 -1.08768	 42.71373	712.89001	 25.20	
 11.892	 81.845	 39.86354	 17.39707	 13.10277	 32.52061	  0.47947	 -1.04921	 42.71868	712.83002	 25.20	
 11.893	 73.654	 39.88855	 19.72751	 10.97557	 31.95590	  0.89793	 -1.06233	 42.71328	712.84003	 25.20	
 11.903	 65.403	 39.89814	 22.06934	  8.94987	 31.07560	  1.47815	 -1.06375	 42.71529	712.87000	 25.20	
 11.897	 57.268	 39.94025	 24.24990	  7.19979	 29.82020	  2.45177	 -1.04609	 42.71655	712.96997	 25.20	
 11.894	 49.133	 39.95069	 26.23474	  5.68574	 28.31186	  3.70281	 -0.97245	 42.71468	712.89001	 25.30	
 11.902	 40.852	 39.97084	 28.04172	  4.34389	 26.56290	  5.10404	 -0.82041	 42.72924	712.79999	 25.30	
 11.909	 32.701	 39.99730	 29.51867	  3.22061	 24.58657	  6.77875	 -0.74400	 42.72561	712.78998	 25.30	
 11.889	 24.555	 40.03950	 30.70026	  2.43819	 22.35578	  8.70776	 -0.75145	 42.73841	712.85999	 25.30	
 11.890	 16.390	 40.02111	 31.54329	  1.82510	 20.08977	 10.70051	 -0.79559	 42.70856	712.75000	 25.30	
 11.899	  8.217	 40.06690	 32.14553	  1.46095	 17.75447	 12.95160	 -0.79951	 42.73919	712.90997	 25.30	
 11.900	  0.000	 40.06292	 32.25079	  1.28811	 15.45377	 15.26477	 -0.76825	 42.71889	712.78998	 25.30	
 11.899	 -8.217	 40.08560	 32.01315	  1.58518	 13.26566	 17.58729	 -0.82478	 42.73162	712.83002	 25.30	
 11.890	-16.390	 40.06945	 31.35351	  2.13038	 11.10216	 19.92630	 -0.91534	 42.69906	712.83002	 25.30	
 11.889	-24.555	 40.09540	 30.41073	  2.87523	  9.10843	 22.23969	 -0.99848	 42.72681	712.85999	 25.30	
 11.909	-32.701	 40.09230	 29.18182	  3.82966	  7.31257	 24.38147	 -1.08615	 42.73244	712.84998	 25.30	
 11.902	-40.852	 40.07726	 27.58942	  5.02181	  5.71221	 26.37035	 -1.11247	 42.73067	712.84003	 25.30	
 11.894	-49.133	 40.08408	 25.72629	  6.53993	  4.32216	 28.12623	 -1.13645	 42.72753	712.75000	 25.30	
 11.897	-57.268	 40.05976	 23.66865	  8.20237	  3.18975	 29.58538	 -1.15554	 42.73251	712.84003	 25.40	
 11.903	-65.403	 40.03605	 21.50490	 10.04232	  2.34932	 30.74302	 -1.20424	 42.70805	712.70001	 25.40	
 11.893	-73.654	 40.03460	 19.22313	 12.14159	  1.80860	 31.59198	 -1.23013	 42.72116	712.79999	 25.40	
 11.892	-81.845	 40.00428	 16.83638	 14.32948	  1.42126	 32.05630	 -1.21459	 42.70061	712.95001	 25.40	
 11.900	-90.000	 39.98237	 14.54787	 16.55737	  1.27504	 32.18296	 -1.19603	 42.70523	712.75000	 25.40	
 11.892	-98.155	 39.96482	 12.32094	 18.83829	  1.42689	 31.89826	 -1.18396	 42.71260	712.76001	 25.40	
 11.893	-106.346	 39.92258	 10.16417	 21.15058	  1.80131	 31.27646	 -1.20286	 42.70407	712.73999	 25.40	
 11.903	-114.597	 39.88566	  8.14113	 23.40429	  2.43361	 30.31304	 -1.24895	 42.70520	712.88000	 25.40	
 11.897	-122.732	 39.86326	  6.35635	 25.47867	  3.37704	 29.03912	 -1.25989	 42.70435	712.90997	 25.40	
 11.894	-130.867	 39.84864	  4.78038	 27.39053	  4.53458	 27.47995	 -1.24481	 42.69948	712.92999	 25.40	
 11.902	-139.148	 39.82569	  3.39098	 29.12194	  5.94599	 25.61311	 -1.21124	 42.70218	712.83002	 25.40	
 11.909	-147.299	 39.82137	  2.27383	 30.49268	  7.56321	 23.56915	 -1.21858	 42.71001	712.84003	 25.40	
 11.889	-155.445	 39.79377	  1.47681	 31.56667	  9.37371	 21.38988	 -1.26717	 42.69658	712.83002	 25.50	
 11.890	-163.610	 39.75733	  0.89036	 32.33462	 11.39357	 19.07026	 -1.30220	 42.67562	712.83002	 25.50	
 11.899	-171.783	 39.74670	  0.48574	 32.83358	 13.50265	 16.75166	 -1.30998	 42.69873	712.78998	 25.50	
 11.900	180.000	 39.71525	  0.35592	 32.93254	 15.69253	 14.43829	 -1.28400	 42.69881	712.79999	 25.50	
 13.600	180.000	 38.66357	 -2.28505	 34.55778	 14.91513	 13.53934	 -1.56815	 42.69373	712.89001	 25.50	
 13.608	-172.853	 38.68907	 -2.15332	 34.49747	 12.74091	 15.80701	 -1.57109	 42.70859	712.78998	 25.50	
 13.611	-165.583	 38.71649	 -1.80616	 34.08434	 10.56279	 18.18301	 -1.56204	 42.68562	712.84998	 25.50	
 13.601	-158.353	 38.74540	 -1.25128	 33.35457	  8.52375	 20.51760	 -1.50816	 42.67773	712.96997	 25.50	
 13.609	-151.210	 38.78773	 -0.59373	 32.41443	  6.68231	 22.73677	 -1.46780	 42.69713	713.04999	 25.50	
 13.611	-143.999	 38.78147	  0.32706	 31.12122	  4.92897	 24.90136	 -1.41673	 42.67503	712.94000	 25.50	
 13.601	-136.825	 38.80685	  1.49711	 29.56979	  3.37581	 26.92554	 -1.39153	 42.69398	712.97998	 25.50	
 13.596	-129.640	 38.82858	  2.88010	 27.84223	  2.07972	 28.71567	 -1.40617	 42.68604	712.94000	 25.50	
