FileType=PCF
NHL=14
Date=03/19/19	15:08:00
Facility=APL
Serial=16071-7
Customer=NASA
NP=6
Mach=0.080000
Calibration=1:1
CalPts=490
TstPts=95
PortNumbering=AP Standard
Units=Torr C m/s kg/m^3 deg mm 
Theta[deg]	Phi[deg]	P1[Torr]	P2[Torr]	P3[Torr]	P4[Torr]	P5[Torr]	P6[Torr]	Pt[Torr]	Ps[Abs,Torr]	Ts[C]	
  0.000	  0.000	  3.11750	  1.31525	  1.36971	  1.34830	  1.34526	  0.05873	  3.10636	712.71997	 24.20	
  1.691	128.401	  3.11382	  1.22565	  1.43663	  1.45551	  1.22093	  0.05380	  3.10334	712.84003	 24.20	
  1.692	 77.194	  3.11555	  1.33435	  1.33022	  1.47888	  1.19799	  0.06059	  3.10516	712.75000	 24.10	
  1.699	 26.182	  3.11511	  1.44192	  1.23081	  1.39576	  1.27592	  0.06048	  3.10479	712.75000	 24.10	
  1.699	-26.182	  3.11321	  1.42941	  1.23764	  1.27854	  1.39084	  0.05781	  3.10243	712.84998	 24.10	
  1.692	-77.194	  3.11455	  1.32662	  1.33904	  1.20407	  1.47341	  0.05343	  3.10341	712.78003	 24.10	
  1.691	-128.401	  3.11555	  1.21765	  1.45883	  1.23601	  1.44695	  0.05140	  3.10459	712.83002	 24.10	
  1.700	180.000	  3.11520	  1.16851	  1.49565	  1.33713	  1.33404	  0.05123	  3.10450	712.73999	 24.10	
  3.400	180.000	  3.10922	  0.99294	  1.65766	  1.32332	  1.30259	  0.03609	  3.10604	712.78998	 24.10	
  3.388	-152.325	  3.11191	  1.02311	  1.62501	  1.18367	  1.44770	  0.03507	  3.10691	712.85999	 24.10	
  3.397	-124.529	  3.11119	  1.11133	  1.52010	  1.08312	  1.56611	  0.03432	  3.10571	712.84003	 24.10	
  3.399	-96.763	  3.11225	  1.24182	  1.38277	  1.03709	  1.62740	  0.03671	  3.10667	712.85999	 24.10	
  3.394	-69.283	  3.11494	  1.38777	  1.24504	  1.05095	  1.61460	  0.04071	  3.10874	712.85999	 24.10	
  3.400	-41.398	  3.11113	  1.51750	  1.12823	  1.12291	  1.52637	  0.04650	  3.10512	712.81000	 24.10	
  3.401	-14.021	  3.11580	  1.59909	  1.06427	  1.24429	  1.39752	  0.05278	  3.10959	712.87000	 24.10	
  3.401	 14.021	  3.11100	  1.60414	  1.05449	  1.38858	  1.25082	  0.05733	  3.10459	712.96997	 24.10	
  3.400	 41.398	  3.11099	  1.53440	  1.11209	  1.52391	  1.12599	  0.05827	  3.10486	712.82001	 24.10	
  3.394	 69.283	  3.11157	  1.40366	  1.22772	  1.61917	  1.04260	  0.05538	  3.10585	712.92999	 24.10	
  3.399	 96.763	  3.11146	  1.25816	  1.36686	  1.64624	  1.02073	  0.05215	  3.10572	712.90002	 24.10	
  3.397	124.529	  3.10961	  1.11939	  1.50725	  1.58857	  1.06461	  0.04678	  3.10481	712.82001	 24.10	
  3.388	152.325	  3.10960	  1.02605	  1.61482	  1.46998	  1.16611	  0.04081	  3.10528	712.92999	 24.10	
  5.099	161.165	  3.09374	  0.83599	  1.78533	  1.46146	  1.12703	  0.02123	  3.10515	712.84003	 24.10	
  5.109	142.013	  3.09266	  0.90523	  1.69780	  1.61032	  0.99496	  0.02656	  3.10403	712.84003	 24.10	
  5.095	123.033	  3.09494	  1.01752	  1.57263	  1.72187	  0.90495	  0.03419	  3.10472	712.87000	 24.00	
  5.105	104.191	  3.09636	  1.15640	  1.42173	  1.78944	  0.85210	  0.03931	  3.10547	712.89001	 24.00	
  5.093	 85.207	  3.09858	  1.31270	  1.26375	  1.80084	  0.84116	  0.04119	  3.10709	712.84003	 24.00	
  5.104	 66.290	  3.10095	  1.47251	  1.11588	  1.75694	  0.87855	  0.04488	  3.10761	712.87000	 24.00	
  5.094	 47.331	  3.09886	  1.61378	  0.99197	  1.65938	  0.95890	  0.04765	  3.10751	712.87000	 24.00	
  5.089	 28.397	  3.09967	  1.71559	  0.91384	  1.52297	  1.08315	  0.04841	  3.10665	712.87000	 24.00	
  5.096	  9.576	  3.10209	  1.76944	  0.87548	  1.37057	  1.22822	  0.04692	  3.10979	712.90997	 24.00	
  5.096	 -9.576	  3.09808	  1.76203	  0.88180	  1.21185	  1.38538	  0.04204	  3.10592	712.89001	 24.00	
  5.089	-28.397	  3.09662	  1.69981	  0.93138	  1.07504	  1.53414	  0.03528	  3.10529	712.84003	 24.00	
  5.094	-47.331	  3.09698	  1.59131	  1.02194	  0.96277	  1.66556	  0.02832	  3.10646	712.96002	 24.00	
  5.104	-66.290	  3.09507	  1.44991	  1.14351	  0.88832	  1.75538	  0.02134	  3.10425	712.87000	 24.00	
  5.093	-85.207	  3.09533	  1.29414	  1.28947	  0.85841	  1.79326	  0.01791	  3.10450	712.87000	 24.00	
  5.105	-104.191	  3.09735	  1.13888	  1.44644	  0.86762	  1.77750	  0.01280	  3.10689	712.85999	 24.00	
  5.095	-123.033	  3.09599	  1.00247	  1.59395	  0.92279	  1.70339	  0.01168	  3.10658	712.78003	 24.00	
  5.109	-142.013	  3.09439	  0.89899	  1.71631	  1.01766	  1.58676	  0.01316	  3.10601	712.94000	 24.00	
  5.099	-161.165	  3.09795	  0.83472	  1.79776	  1.15242	  1.43762	  0.01513	  3.11057	712.87000	 24.00	
  5.100	180.000	  3.09697	  0.81533	  1.81871	  1.30303	  1.28234	  0.01681	  3.10923	712.89001	 24.00	
  6.800	180.000	  3.06768	  0.62806	  1.97316	  1.27452	  1.24752	 -0.00504	  3.10696	712.84998	 24.00	
  6.796	-166.229	  3.07181	  0.64365	  1.95893	  1.12804	  1.40146	 -0.00847	  3.10961	712.90997	 24.00	
  6.808	-152.311	  3.06901	  0.68873	  1.90174	  0.98496	  1.55767	 -0.01000	  3.10762	712.88000	 24.00	
  6.795	-138.383	  3.06744	  0.76546	  1.80525	  0.86552	  1.69832	 -0.01200	  3.10727	712.75000	 24.00	
  6.792	-124.591	  3.06831	  0.86673	  1.68423	  0.77425	  1.81485	 -0.01310	  3.10788	712.85999	 23.90	
  6.787	-110.754	  3.06973	  0.99446	  1.53955	  0.71269	  1.89624	 -0.01237	  3.10754	712.90002	 23.90	
  6.800	-96.985	  3.06861	  1.14110	  1.38388	  0.67803	  1.94360	 -0.00973	  3.10647	712.78998	 24.00	
  6.800	-83.015	  3.06827	  1.29741	  1.22783	  0.67592	  1.94816	 -0.00953	  3.10360	712.82001	 23.90	
  6.787	-69.246	  3.06863	  1.45416	  1.08060	  0.70623	  1.90834	 -0.00479	  3.10455	712.84998	 23.90	
  6.792	-55.409	  3.07137	  1.60483	  0.95197	  0.76456	  1.83546	  0.00258	  3.10558	712.83002	 23.90	
  6.795	-41.617	  3.06842	  1.73185	  0.84306	  0.85179	  1.72595	  0.00719	  3.10436	712.90997	 23.90	
  6.808	-27.689	  3.07113	  1.83625	  0.76107	  0.96752	  1.59000	  0.01262	  3.10569	712.77002	 23.90	
  6.796	-13.771	  3.07162	  1.90286	  0.70887	  1.10663	  1.43684	  0.02195	  3.10647	712.78003	 23.90	
  6.800	  0.000	  3.07109	  1.92935	  0.68565	  1.25238	  1.28126	  0.02777	  3.10803	712.81000	 23.90	
  6.796	 13.771	  3.07370	  1.91359	  0.69503	  1.41206	  1.12573	  0.03063	  3.10875	712.79999	 23.90	
  6.808	 27.689	  3.07352	  1.85650	  0.73529	  1.56821	  0.98014	  0.03296	  3.10789	712.90997	 23.90	
  6.795	 41.617	  3.07410	  1.76018	  0.80984	  1.70942	  0.85761	  0.03149	  3.10880	712.92999	 23.90	
  6.792	 55.409	  3.07253	  1.63380	  0.91402	  1.82415	  0.76062	  0.02783	  3.10799	712.71002	 23.90	
  6.787	 69.246	  3.07276	  1.48252	  1.04596	  1.90783	  0.69343	  0.02802	  3.10710	712.75000	 23.90	
  6.800	 83.015	  3.07246	  1.32781	  1.18860	  1.95413	  0.65757	  0.02386	  3.10842	712.82001	 23.90	
  6.800	 96.985	  3.07101	  1.16879	  1.34729	  1.95729	  0.65638	  0.01973	  3.10652	712.84998	 23.90	
  6.787	110.754	  3.07183	  1.01966	  1.50290	  1.91719	  0.68762	  0.01445	  3.10737	712.82001	 23.90	
  6.792	124.591	  3.06768	  0.88576	  1.64956	  1.83740	  0.74721	  0.01306	  3.10416	712.89001	 23.90	
  6.795	138.383	  3.06843	  0.77734	  1.77903	  1.72728	  0.83866	  0.00582	  3.10637	712.76001	 23.90	
  6.808	152.311	  3.06624	  0.69685	  1.88166	  1.59069	  0.95352	  0.00189	  3.10566	712.78998	 23.90	
  6.796	166.229	  3.06655	  0.64695	  1.94722	  1.43618	  1.09366	  0.00055	  3.10609	712.87000	 23.90	
  8.491	168.704	  3.02432	  0.45341	  2.09696	  1.40501	  1.04534	 -0.02605	  3.10302	712.89001	 23.90	
  8.502	157.493	  3.02706	  0.49366	  2.04363	  1.56596	  0.89949	 -0.02427	  3.10483	712.84998	 23.90	
  8.494	146.194	  3.02698	  0.56150	  1.95323	  1.71598	  0.77097	 -0.02318	  3.10585	712.87000	 23.90	
  8.495	135.039	  3.02292	  0.65023	  1.83404	  1.84674	  0.65923	 -0.01781	  3.10070	712.82001	 23.90	
  8.487	123.723	  3.02940	  0.76722	  1.70059	  1.96066	  0.57612	 -0.01123	  3.10542	712.77002	 23.90	
  8.492	112.575	  3.02924	  0.89806	  1.54844	  2.04286	  0.51216	 -0.01139	  3.10549	712.90002	 23.90	
  8.510	101.220	  3.02929	  1.05086	  1.38459	  2.09454	  0.47265	 -0.00793	  3.10399	712.82001	 23.90	
  8.500	 90.000	  3.02822	  1.20682	  1.22324	  2.10806	  0.46038	 -0.00318	  3.10291	712.76001	 23.90	
  8.510	 78.780	  3.02822	  1.36964	  1.06629	  2.08770	  0.47411	  0.00076	  3.10306	712.91998	 23.90	
  8.492	 67.425	  3.02953	  1.53591	  0.91948	  2.03067	  0.51888	  0.00370	  3.10377	712.82001	 23.90	
  8.487	 56.277	  3.03175	  1.68611	  0.79229	  1.94357	  0.58935	  0.00251	  3.10552	712.84003	 23.90	
  8.495	 44.961	  3.03315	  1.82232	  0.68626	  1.82761	  0.68673	  0.01076	  3.10652	712.77002	 23.80	
  8.494	 33.806	  3.03487	  1.93531	  0.59916	  1.69214	  0.80170	  0.01409	  3.10780	712.81000	 23.80	
  8.502	 22.507	  3.03115	  2.01717	  0.53713	  1.54033	  0.93336	  0.01068	  3.10482	712.81000	 23.80	
  8.491	 11.296	  3.02952	  2.06339	  0.50482	  1.37850	  1.08242	  0.00729	  3.10265	712.85999	 23.80	
  8.500	  0.000	  3.03193	  2.07745	  0.49725	  1.21338	  1.24503	  0.00437	  3.10415	712.90997	 23.80	
  8.491	-11.296	  3.02914	  2.05256	  0.51626	  1.05929	  1.40507	 -0.00014	  3.10311	712.85999	 23.80	
  8.502	-22.507	  3.03091	  1.99889	  0.56014	  0.91408	  1.56936	 -0.00866	  3.10450	712.82001	 23.80	
  8.494	-33.806	  3.03123	  1.90742	  0.63249	  0.78414	  1.72097	 -0.01782	  3.10522	712.83002	 23.80	
  8.495	-44.961	  3.02829	  1.79198	  0.71990	  0.67888	  1.84881	 -0.02266	  3.10452	712.79999	 23.80	
  8.487	-56.277	  3.03047	  1.65389	  0.83528	  0.59373	  1.95815	 -0.02682	  3.10707	712.79999	 23.80	
  8.492	-67.425	  3.03262	  1.50295	  0.96781	  0.53212	  2.04263	 -0.03349	  3.10762	712.82001	 23.80	
  8.510	-78.780	  3.02904	  1.33749	  1.11397	  0.49209	  2.09073	 -0.03880	  3.10732	712.89001	 23.80	
  8.500	-90.000	  3.03254	  1.17850	  1.27563	  0.48471	  2.10672	 -0.03891	  3.10837	712.84003	 23.80	
  8.510	-101.220	  3.03014	  1.02123	  1.43311	  0.49677	  2.08432	 -0.04116	  3.10916	712.88000	 23.80	
  8.492	-112.575	  3.03083	  0.87366	  1.59620	  0.54229	  2.02474	 -0.04006	  3.10921	712.87000	 23.80	
  8.487	-123.723	  3.03032	  0.74852	  1.74117	  0.60821	  1.93414	 -0.04140	  3.10981	712.82001	 23.80	
  8.495	-135.039	  3.03007	  0.64163	  1.87291	  0.69976	  1.81917	 -0.03785	  3.10711	712.88000	 23.80	
  8.494	-146.194	  3.02678	  0.55006	  1.98042	  0.80400	  1.68200	 -0.03756	  3.10565	712.78998	 23.80	
  8.502	-157.493	  3.02772	  0.48749	  2.06139	  0.93780	  1.52720	 -0.03793	  3.10592	712.92999	 23.80	
  8.491	-168.704	  3.02815	  0.45258	  2.10872	  1.08534	  1.36754	 -0.03519	  3.10636	712.84003	 23.80	
  8.500	180.000	  3.02639	  0.43690	  2.12126	  1.23862	  1.20470	 -0.03219	  3.10650	712.90997	 23.80	
 10.200	180.000	  2.97623	  0.25412	  2.25787	  1.19769	  1.15600	 -0.05917	  3.10640	712.90997	 23.80	
 10.191	-170.497	  2.97604	  0.26126	  2.24941	  1.03974	  1.31749	 -0.06442	  3.10758	712.82001	 23.80	
 10.210	-161.034	  2.97624	  0.28985	  2.20999	  0.88681	  1.48400	 -0.06434	  3.10592	712.89001	 23.80	
 10.194	-151.526	  2.97800	  0.34505	  2.14046	  0.74896	  1.64801	 -0.06236	  3.10757	712.85999	 23.80	
 10.190	-142.105	  2.97460	  0.41511	  2.04676	  0.62834	  1.79310	 -0.06477	  3.10539	712.91998	 23.80	
 10.215	-132.646	  2.97370	  0.50720	  1.92647	  0.52042	  1.92987	 -0.06862	  3.10531	712.85999	 23.80	
 10.203	-123.092	  2.97528	  0.62209	  1.78788	  0.43506	  2.04785	 -0.06947	  3.10565	712.94000	 23.80	
 10.192	-113.678	  2.97552	  0.75004	  1.63601	  0.37148	  2.13678	 -0.06800	  3.10611	712.89001	 23.80	
 10.208	-104.249	  2.97856	  0.89188	  1.47960	  0.32389	  2.20744	 -0.06562	  3.10836	712.94000	 23.80	
 10.210	-94.801	  2.97572	  1.04585	  1.31232	  0.29780	  2.23954	 -0.06600	  3.10661	712.89001	 23.80	
 10.210	-85.199	  2.97741	  1.21088	  1.14918	  0.29676	  2.24521	 -0.06575	  3.10751	712.78998	 23.80	
 10.208	-75.751	  2.97939	  1.37540	  0.99376	  0.31515	  2.22059	 -0.06504	  3.10782	712.90002	 23.80	
 10.192	-66.322	  2.97841	  1.54051	  0.84614	  0.35530	  2.16392	 -0.06043	  3.10695	712.84998	 23.80	
 10.203	-56.908	  2.98022	  1.69613	  0.71501	  0.41677	  2.08052	 -0.05658	  3.10820	712.78998	 23.80	
 10.215	-47.354	  2.98036	  1.84122	  0.59804	  0.50060	  1.97134	 -0.05351	  3.10767	712.75000	 23.80	
 10.190	-37.895	  2.98070	  1.96768	  0.50233	  0.60477	  1.83915	 -0.04889	  3.10684	712.85999	 23.80	
 10.194	-28.474	  2.97984	  2.07237	  0.42380	  0.72058	  1.69678	 -0.04464	  3.10725	712.81000	 23.70	
 10.210	-18.966	  2.97983	  2.15221	  0.36360	  0.85848	  1.53668	 -0.03630	  3.10708	712.84003	 23.70	
 10.191	 -9.503	  2.98279	  2.20072	  0.32871	  1.00999	  1.37155	 -0.02737	  3.10777	712.88000	 23.70	
 10.200	  0.000	  2.98244	  2.22273	  0.31290	  1.16656	  1.20724	 -0.02245	  3.10839	712.90997	 23.70	
 10.191	  9.503	  2.98387	  2.21296	  0.31835	  1.33352	  1.04339	 -0.01961	  3.10697	712.91998	 23.80	
 10.210	 18.966	  2.98082	  2.17132	  0.34146	  1.49791	  0.88806	 -0.01601	  3.10622	712.88000	 23.70	
 10.194	 28.474	  2.98266	  2.10059	  0.39264	  1.65533	  0.75122	 -0.01123	  3.10585	713.01001	 23.80	
 10.190	 37.895	  2.98341	  2.00247	  0.46433	  1.80548	  0.62447	 -0.01042	  3.10810	712.92999	 23.70	
 10.215	 47.354	  2.98266	  1.87930	  0.55814	  1.94312	  0.51100	 -0.01759	  3.10693	712.88000	 23.70	
 10.203	 56.908	  2.98238	  1.73822	  0.66703	  2.05931	  0.41858	 -0.02168	  3.10718	712.91998	 23.70	
 10.192	 66.322	  2.98448	  1.58438	  0.79592	  2.14816	  0.35256	 -0.02360	  3.10856	712.78998	 23.70	
 10.208	 75.751	  2.98576	  1.42110	  0.93995	  2.21069	  0.30775	 -0.02592	  3.10795	712.82001	 23.70	
 10.210	 85.199	  2.98732	  1.25637	  1.09717	  2.24562	  0.28624	 -0.02640	  3.10968	712.90002	 23.70	
 10.210	 94.801	  2.98327	  1.08714	  1.25852	  2.24706	  0.28083	 -0.03284	  3.10841	712.82001	 23.70	
 10.208	104.249	  2.98084	  0.92694	  1.42326	  2.21859	  0.30024	 -0.03777	  3.10582	712.91998	 23.70	
 10.192	113.678	  2.97876	  0.78063	  1.58341	  2.15940	  0.34192	 -0.04136	  3.10428	712.94000	 23.70	
 10.203	123.092	  2.97847	  0.64894	  1.73716	  2.07921	  0.40122	 -0.03961	  3.10632	712.85999	 23.70	
 10.215	132.646	  2.97723	  0.53005	  1.88144	  1.96929	  0.48262	 -0.04480	  3.10687	712.90002	 23.70	
 10.190	142.105	  2.97688	  0.43500	  2.00702	  1.83647	  0.58954	 -0.04898	  3.10731	712.89001	 23.70	
 10.194	151.526	  2.97591	  0.35785	  2.11124	  1.68910	  0.70921	 -0.04810	  3.10693	712.90002	 23.70	
 10.210	161.034	  2.97317	  0.29825	  2.18852	  1.53009	  0.84221	 -0.05325	  3.10549	712.94000	 23.70	
 10.191	170.497	  2.97459	  0.26486	  2.23691	  1.36400	  0.99404	 -0.05529	  3.10587	712.87000	 23.70	
 11.899	171.783	  2.91203	  0.08070	  2.37032	  1.31561	  0.93812	 -0.08451	  3.10689	712.76001	 23.70	
 11.890	163.610	  2.91627	  0.11133	  2.32575	  1.48515	  0.78811	 -0.08101	  3.10909	712.88000	 23.70	
 11.889	155.445	  2.91558	  0.16122	  2.25681	  1.64634	  0.65131	 -0.07913	  3.10869	712.89001	 23.70	
 11.909	147.299	  2.91338	  0.22306	  2.16362	  1.80326	  0.51905	 -0.07989	  3.10764	712.95001	 23.70	
 11.902	139.148	  2.91229	  0.30482	  2.04817	  1.94564	  0.40340	 -0.07793	  3.10599	712.98999	 23.70	
 11.894	130.867	  2.91352	  0.40706	  1.91402	  2.07250	  0.30942	 -0.07501	  3.10511	712.98999	 23.70	
 11.897	122.732	  2.91597	  0.52489	  1.76954	  2.18153	  0.23373	 -0.06996	  3.10521	712.84003	 23.70	
 11.903	114.597	  2.91881	  0.65621	  1.61457	  2.26927	  0.17227	 -0.07081	  3.10627	712.78998	 23.70	
 11.893	106.346	  2.91719	  0.80046	  1.45024	  2.33104	  0.12641	 -0.06894	  3.10576	712.89001	 23.70	
 11.892	 98.155	  2.91954	  0.95926	  1.28191	  2.36762	  0.10325	 -0.06605	  3.10581	712.90997	 23.70	
 11.900	 90.000	  2.91928	  1.12052	  1.11755	  2.37800	  0.09489	 -0.06141	  3.10391	712.91998	 23.70	
 11.892	 81.845	  2.92070	  1.28735	  0.95945	  2.36090	  0.10807	 -0.05816	  3.10450	712.94000	 23.70	
 11.893	 73.654	  2.91888	  1.45604	  0.80710	  2.31504	  0.14006	 -0.05596	  3.10211	712.90002	 23.70	
 11.903	 65.403	  2.92108	  1.62362	  0.66532	  2.24915	  0.18825	 -0.05411	  3.10408	712.95001	 23.70	
 11.897	 57.268	  2.92312	  1.77694	  0.54323	  2.15782	  0.25877	 -0.05115	  3.10600	712.87000	 23.70	
 11.894	 49.133	  2.92150	  1.92232	  0.43078	  2.04581	  0.34126	 -0.04694	  3.10377	712.96997	 23.70	
 11.902	 40.852	  2.91972	  2.05362	  0.33108	  1.91302	  0.44328	 -0.04186	  3.10540	712.89001	 23.70	
 11.909	 32.701	  2.91951	  2.16118	  0.25644	  1.76420	  0.56458	 -0.03753	  3.10435	712.95001	 23.70	
 11.889	 24.555	  2.91914	  2.24579	  0.19769	  1.60728	  0.69661	 -0.04225	  3.10379	712.98999	 23.70	
 11.890	 16.390	  2.91995	  2.30751	  0.15906	  1.44818	  0.83987	 -0.04429	  3.10463	713.00000	 23.70	
 11.899	  8.217	  2.91990	  2.34565	  0.13577	  1.28134	  0.99643	 -0.04567	  3.10566	713.08002	 23.70	
 11.900	  0.000	  2.92043	  2.35525	  0.13468	  1.11579	  1.16204	 -0.04941	  3.10621	712.96997	 23.70	
 11.899	 -8.217	  2.91662	  2.33280	  0.14680	  0.95596	  1.32468	 -0.05423	  3.10315	712.89001	 23.70	
 11.890	-16.390	  2.91855	  2.28942	  0.17813	  0.80505	  1.49250	 -0.06110	  3.10557	712.87000	 23.70	
 11.889	-24.555	  2.91839	  2.21974	  0.22593	  0.66064	  1.65725	 -0.06975	  3.10678	712.90997	 23.70	
 11.909	-32.701	  2.91226	  2.12650	  0.29032	  0.53480	  1.80580	 -0.07727	  3.10124	712.96002	 23.70	
 11.902	-40.852	  2.91320	  2.01190	  0.37277	  0.42248	  1.94806	 -0.07908	  3.10451	712.94000	 23.70	
 11.894	-49.133	  2.91474	  1.87688	  0.47616	  0.32455	  2.08114	 -0.07961	  3.10694	712.90002	 23.70	
 11.897	-57.268	  2.91431	  1.72765	  0.59204	  0.24510	  2.18877	 -0.08111	  3.10561	712.87000	 23.70	
 11.903	-65.403	  2.91495	  1.57359	  0.72262	  0.18669	  2.27229	 -0.08320	  3.10678	712.85999	 23.70	
 11.893	-73.654	  2.91729	  1.40721	  0.87000	  0.14682	  2.33310	 -0.08617	  3.10811	712.77002	 23.70	
 11.892	-81.845	  2.91416	  1.23918	  1.02531	  0.12381	  2.36776	 -0.08810	  3.10619	712.89001	 23.70	
 11.900	-90.000	  2.91254	  1.07321	  1.18268	  0.11728	  2.37343	 -0.08648	  3.10506	712.90002	 23.60	
 11.892	-98.155	  2.91335	  0.91354	  1.34690	  0.12748	  2.35783	 -0.08398	  3.10573	712.90997	 23.60	
 11.893	-106.346	  2.91511	  0.76233	  1.51431	  0.15770	  2.31488	 -0.08444	  3.10902	712.84003	 23.60	
 11.903	-114.597	  2.91034	  0.61907	  1.67409	  0.20298	  2.24221	 -0.08864	  3.10517	712.90002	 23.70	
 11.897	-122.732	  2.90871	  0.49159	  1.82699	  0.26553	  2.15033	 -0.09049	  3.10477	712.88000	 23.60	
 11.894	-130.867	  2.90915	  0.38109	  1.96829	  0.34808	  2.03414	 -0.08891	  3.10347	712.83002	 23.60	
 11.902	-139.148	  2.91081	  0.28041	  2.09878	  0.44839	  1.89800	 -0.08731	  3.10535	712.92999	 23.60	
 11.909	-147.299	  2.90993	  0.20188	  2.20379	  0.56352	  1.74871	 -0.08545	  3.10316	712.84003	 23.60	
 11.889	-155.445	  2.91051	  0.14755	  2.28193	  0.69055	  1.59719	 -0.08694	  3.10408	712.90997	 23.60	
 11.890	-163.610	  2.91116	  0.10286	  2.34240	  0.83490	  1.43022	 -0.09003	  3.10396	712.89001	 23.60	
 11.899	-171.783	  2.91081	  0.07629	  2.37926	  0.98827	  1.26326	 -0.08788	  3.10462	712.90002	 23.60	
 11.900	180.000	  2.90657	  0.06662	  2.38618	  1.14721	  1.09597	 -0.08675	  3.10069	712.95001	 23.60	
 13.600	180.000	  2.83758	 -0.11233	  2.50729	  1.09243	  1.03535	 -0.10881	  3.10598	712.83002	 23.60	
 13.608	-172.853	  2.83337	 -0.11006	  2.50069	  0.93277	  1.19448	 -0.11378	  3.10196	712.78998	 23.60	
 13.611	-165.583	  2.83335	 -0.08715	  2.46909	  0.77614	  1.36435	 -0.11221	  3.10110	712.82001	 23.60	
 13.601	-158.353	  2.83526	 -0.05065	  2.41843	  0.63082	  1.53264	 -0.10894	  3.10290	712.84003	 23.60	
 13.609	-151.210	  2.83417	  0.00253	  2.34244	  0.49944	  1.69173	 -0.10740	  3.10131	712.82001	 23.60	
 13.611	-143.999	  2.83361	  0.06677	  2.24671	  0.37605	  1.84772	 -0.10464	  3.10262	712.78998	 23.60	
 13.601	-136.825	  2.83524	  0.15179	  2.13167	  0.26901	  1.99566	 -0.10505	  3.10326	712.81000	 23.60	
 13.596	-129.640	  2.83357	  0.24666	  1.99968	  0.17579	  2.12420	 -0.10261	  3.10291	712.76001	 23.60	
