FileType=PCF
NHL=14
Date=03/20/19	10:50:56
Facility=APL
Serial=16071-7
Customer=NASA
NP=6
Mach=0.380000
Calibration=1:1
CalPts=490
TstPts=95
PortNumbering=AP Standard
Units=Torr C m/s kg/m^3 deg mm 
Theta[deg]	Phi[deg]	P1[Torr]	P2[Torr]	P3[Torr]	P4[Torr]	P5[Torr]	P6[Torr]	Pt[Torr]	Ps[Abs,Torr]	Ts[C]	
  0.000	  0.000	 67.12273	 27.88333	 29.93670	 29.17966	 28.01327	  1.15109	 67.13391	712.20001	 28.40	
  1.691	128.401	 67.11089	 25.58268	 31.91901	 31.99331	 24.99604	  1.07865	 67.14639	712.08002	 28.40	
  1.692	 77.194	 67.16939	 28.73896	 28.87617	 32.70126	 24.41066	  1.16861	 67.18703	712.09003	 28.50	
  1.699	 26.182	 67.19456	 31.22953	 26.51571	 30.80077	 26.40535	  1.21700	 67.19289	712.13000	 28.50	
  1.699	-26.182	 67.18865	 31.13667	 26.79165	 27.48388	 29.65891	  1.16516	 67.20007	712.19000	 28.60	
  1.692	-77.194	 67.18965	 28.56891	 29.40071	 25.60101	 31.54438	  1.07262	 67.19833	712.19000	 28.60	
  1.691	-128.401	 67.15144	 25.48993	 32.34639	 26.32310	 30.72160	  1.01830	 67.18448	712.25000	 28.70	
  1.700	180.000	 67.15827	 24.14333	 33.51537	 29.13555	 27.85420	  1.01280	 67.20824	712.09998	 28.70	
  3.400	180.000	 67.00675	 20.33086	 36.94085	 28.92895	 27.47474	  0.75972	 67.21716	712.15997	 28.80	
  3.388	-152.325	 67.03625	 21.07379	 36.35244	 25.58850	 30.84911	  0.74387	 67.20991	712.10999	 28.80	
  3.397	-124.529	 67.06503	 23.24949	 34.11484	 22.96340	 33.65545	  0.75561	 67.21947	712.08002	 28.80	
  3.399	-96.763	 67.09695	 26.51322	 30.87577	 21.73002	 35.10122	  0.81470	 67.21844	712.15002	 28.90	
  3.394	-69.283	 67.14757	 30.04997	 27.48986	 22.13331	 34.77406	  0.91214	 67.23587	712.14001	 28.90	
  3.400	-41.398	 67.17871	 33.10679	 24.56625	 23.99361	 32.77454	  1.01236	 67.24718	712.01001	 29.00	
  3.401	-14.021	 67.15248	 34.87801	 22.79390	 27.01339	 29.66084	  1.10650	 67.21376	712.16998	 29.00	
  3.401	 14.021	 67.13464	 34.99485	 22.49248	 30.54852	 26.07072	  1.16132	 67.20958	712.06000	 29.00	
  3.400	 41.398	 67.11610	 33.35690	 23.95090	 33.68326	 22.98573	  1.14753	 67.21295	712.12000	 29.10	
  3.394	 69.283	 67.09481	 30.37694	 26.71393	 35.82748	 20.96206	  1.09811	 67.22988	712.15997	 29.10	
  3.399	 96.763	 67.11385	 26.88848	 30.12610	 36.27190	 20.53677	  0.99551	 67.27448	712.15002	 29.20	
  3.397	124.529	 67.07218	 23.56788	 33.50417	 35.03444	 21.61897	  0.90543	 67.26101	712.19000	 29.20	
  3.388	152.325	 67.05456	 21.25958	 35.93995	 32.36486	 24.12586	  0.80376	 67.26069	712.17999	 29.20	
  5.099	161.165	 66.62401	 17.12981	 39.49280	 32.12090	 23.40902	  0.42824	 67.23766	712.21002	 29.30	
  5.109	142.013	 66.65875	 18.81355	 37.57598	 35.39841	 20.35388	  0.48689	 67.25594	712.19000	 29.30	
  5.095	123.033	 66.69978	 21.45543	 34.74624	 37.90755	 18.15419	  0.60362	 67.27602	712.25000	 29.40	
  5.105	104.191	 66.71206	 24.68121	 31.35728	 39.41663	 16.88992	  0.68009	 67.26684	712.27002	 29.40	
  5.093	 85.207	 66.77059	 28.37173	 27.71223	 39.71512	 16.72354	  0.77990	 67.28609	712.17999	 29.50	
  5.104	 66.290	 66.80432	 31.93574	 24.34953	 38.74120	 17.60571	  0.86482	 67.27679	712.27002	 29.50	
  5.094	 47.331	 66.85084	 35.08577	 21.52030	 36.60032	 19.47236	  0.93345	 67.29313	712.21002	 29.50	
  5.089	 28.397	 66.87935	 37.35947	 19.55199	 33.64466	 22.24766	  0.97894	 67.27865	712.27002	 29.60	
  5.096	  9.576	 66.89890	 38.60260	 18.56264	 30.19033	 25.65619	  0.98624	 67.27498	712.21997	 29.60	
  5.096	 -9.576	 66.94695	 38.54555	 18.87747	 26.50266	 29.36876	  0.92649	 67.31613	712.22998	 29.60	
  5.089	-28.397	 66.95356	 37.12535	 20.16339	 23.19022	 32.81997	  0.83157	 67.30446	712.22998	 29.70	
  5.094	-47.331	 66.97524	 34.67227	 22.35811	 20.50666	 35.82254	  0.71177	 67.33562	712.19000	 29.70	
  5.104	-66.290	 66.94920	 31.48044	 25.32725	 18.69882	 37.86163	  0.60291	 67.33345	712.33002	 29.70	
  5.093	-85.207	 66.91794	 27.91334	 28.76193	 17.94896	 38.65309	  0.50485	 67.32401	712.26001	 29.80	
  5.105	-104.191	 66.85140	 24.24258	 32.33201	 18.22615	 38.23120	  0.42943	 67.31081	712.15002	 29.80	
  5.095	-123.033	 66.85677	 21.06136	 35.67717	 19.64392	 36.55515	  0.39002	 67.36052	712.22998	 29.80	
  5.109	-142.013	 66.77346	 18.50367	 38.35612	 21.92036	 33.89558	  0.38018	 67.32207	712.21002	 29.90	
  5.099	-161.165	 66.75932	 16.97311	 39.93178	 25.04254	 30.50601	  0.36891	 67.32379	712.20001	 29.90	
  5.100	180.000	 66.74520	 16.49582	 40.32531	 28.60637	 26.92071	  0.38165	 67.33792	712.27002	 29.90	
  6.800	180.000	 66.10483	 12.64455	 43.49199	 28.00340	 26.21711	 -0.04541	 67.33665	712.27002	 29.90	
  6.796	-166.229	 66.10001	 12.95876	 43.27841	 24.50703	 29.68997	 -0.08466	 67.28946	712.15002	 30.00	
  6.808	-152.311	 66.18195	 14.05565	 42.08878	 21.35180	 33.19343	 -0.08033	 67.35110	712.29999	 30.00	
  6.795	-138.383	 66.20068	 15.87789	 40.04058	 18.66378	 36.29368	 -0.07722	 67.33765	712.33002	 30.00	
  6.792	-124.591	 66.25674	 18.26508	 37.43457	 16.58481	 38.87668	 -0.10426	 67.34560	712.26001	 30.00	
  6.787	-110.754	 66.29240	 21.25103	 34.27740	 15.08935	 40.77536	 -0.10177	 67.32756	712.23999	 30.10	
  6.800	-96.985	 66.34391	 24.58642	 30.86673	 14.23324	 41.85057	 -0.01816	 67.35401	712.37000	 30.10	
  6.800	-83.015	 66.36317	 28.19319	 27.31353	 14.15271	 41.93917	  0.02987	 67.33167	712.34003	 30.10	
  6.787	-69.246	 66.40754	 31.68569	 23.93105	 14.92730	 41.09582	  0.12837	 67.34757	712.29999	 30.10	
  6.792	-55.409	 66.44337	 34.95552	 20.96235	 16.27973	 39.46087	  0.21436	 67.35594	712.21997	 30.20	
  6.795	-41.617	 66.43594	 37.85319	 18.53454	 18.36867	 37.04169	  0.33487	 67.34126	712.41998	 30.20	
  6.808	-27.689	 66.45128	 40.21859	 16.63928	 21.06269	 33.99403	  0.43932	 67.34988	712.34003	 30.20	
  6.796	-13.771	 66.44823	 41.61263	 15.35814	 24.24528	 30.52221	  0.55202	 67.35702	712.15002	 30.20	
  6.800	  0.000	 66.43695	 42.13087	 14.69013	 27.72764	 27.01805	  0.64484	 67.35880	712.21002	 30.20	
  6.796	 13.771	 66.40531	 41.74194	 14.86141	 31.38504	 23.48524	  0.68376	 67.34985	712.28003	 30.30	
  6.808	 27.689	 66.37040	 40.46592	 15.86455	 34.73483	 20.18617	  0.69194	 67.35428	712.19000	 30.30	
  6.795	 41.617	 66.35884	 38.30779	 17.56573	 37.70403	 17.40773	  0.61962	 67.38786	712.21002	 30.30	
  6.792	 55.409	 66.32658	 35.50579	 19.95169	 40.32971	 15.18981	  0.54102	 67.38345	712.22998	 30.30	
  6.787	 69.246	 66.29945	 32.23955	 22.89202	 42.00983	 13.61477	  0.47100	 67.39226	712.19000	 30.40	
  6.800	 83.015	 66.23059	 28.72923	 26.06944	 42.93543	 12.75340	  0.39488	 67.35880	712.13000	 30.40	
  6.800	 96.985	 66.19773	 25.12041	 29.61285	 42.96432	 12.69569	  0.29673	 67.35208	712.26001	 30.40	
  6.787	110.754	 66.14552	 21.76709	 33.07033	 42.04507	 13.42924	  0.23163	 67.33064	712.33002	 30.40	
  6.792	124.591	 66.12658	 18.71066	 36.36226	 40.42428	 14.85716	  0.15849	 67.33775	712.28998	 30.50	
  6.795	138.383	 66.12604	 16.19584	 39.20145	 37.96810	 16.96158	 -0.00639	 67.36036	712.20001	 30.50	
  6.808	152.311	 66.12637	 14.27448	 41.44149	 35.00983	 19.60606	  0.00348	 67.38207	712.20001	 30.50	
  6.796	166.229	 66.11858	 13.08784	 42.91108	 31.65182	 22.78101	 -0.02726	 67.36176	712.17999	 30.50	
  8.491	168.704	 65.22668	  9.07793	 46.00531	 30.97445	 21.82506	 -0.53702	 67.36783	712.27002	 30.60	
  8.502	157.493	 65.17623	 10.03329	 44.70750	 34.50024	 18.55158	 -0.50674	 67.32567	712.21997	 30.60	
  8.494	146.194	 65.23040	 11.61858	 42.77774	 37.72598	 15.70658	 -0.73843	 67.36657	712.28998	 30.60	
  8.495	135.039	 65.23651	 13.73259	 40.24067	 40.59899	 13.23755	 -0.39525	 67.36320	712.25000	 30.60	
  8.487	123.723	 65.28537	 16.34730	 37.27916	 42.96262	 11.23820	 -0.32311	 67.39027	712.09003	 30.60	
  8.492	112.575	 65.31417	 19.30003	 34.02514	 44.78159	  9.78710	 -0.27173	 67.40008	712.27002	 30.70	
  8.510	101.220	 65.30670	 22.68888	 30.39781	 45.91545	  8.93103	 -0.20836	 67.35440	712.20001	 30.70	
  8.500	 90.000	 65.39767	 26.20005	 26.86503	 46.25800	  8.80864	 -0.12705	 67.39867	712.19000	 30.70	
  8.510	 78.780	 65.41432	 29.85260	 23.44676	 45.86129	  9.09644	 -0.18107	 67.37944	712.16998	 30.70	
  8.492	 67.425	 65.44643	 33.46461	 20.21994	 44.60567	 10.12029	 -0.01584	 67.37984	712.23999	 30.70	
  8.487	 56.277	 65.48911	 36.70098	 17.42820	 42.79986	 11.66123	 -0.00314	 67.37714	712.27002	 30.80	
  8.495	 44.961	 65.53643	 39.69863	 15.02332	 40.39951	 13.81709	 -0.14220	 67.37832	712.15997	 30.80	
  8.494	 33.806	 65.55999	 42.08161	 13.09280	 37.43951	 16.39135	  0.25111	 67.35088	712.21997	 30.80	
  8.502	 22.507	 65.60848	 43.90275	 11.61891	 34.26830	 19.32229	  0.27512	 67.39932	712.33002	 30.80	
  8.491	 11.296	 65.62857	 44.99403	 10.81346	 30.67665	 22.71996	  0.25368	 67.37924	712.26001	 30.80	
  8.500	  0.000	 65.63191	 45.31119	 10.73821	 26.91278	 26.31543	  0.20217	 67.35149	712.21997	 30.90	
  8.491	-11.296	 65.67522	 44.86204	 11.29894	 23.43652	 29.91475	  0.11163	 67.39081	712.15997	 30.90	
  8.502	-22.507	 65.71935	 43.66253	 12.41833	 20.12654	 33.52124	 -0.02142	 67.41299	712.19000	 30.90	
  8.494	-33.806	 65.69642	 41.69973	 14.05324	 17.19082	 36.86152	 -0.20206	 67.40122	712.17999	 30.90	
  8.495	-44.961	 65.70886	 39.18516	 16.09437	 14.75817	 39.74771	 -0.32514	 67.42205	712.22998	 30.90	
  8.487	-56.277	 65.67596	 36.11647	 18.56396	 12.76767	 42.11916	 -0.32608	 67.39035	712.29999	 30.90	
  8.492	-67.425	 65.67284	 32.83523	 21.45642	 11.33365	 43.86261	 -0.52340	 67.40656	712.26001	 30.90	
  8.510	-78.780	 65.63316	 29.21238	 24.79389	 10.42732	 44.98579	 -0.54676	 67.41232	712.32001	 31.00	
  8.500	-90.000	 65.62368	 25.57908	 28.36698	 10.24118	 45.24366	 -0.56918	 67.41868	712.26001	 31.00	
  8.510	-101.220	 65.57201	 22.04967	 31.96742	 10.49504	 44.79306	 -0.61289	 67.41805	712.28998	 31.00	
  8.492	-112.575	 65.54252	 18.71939	 35.44475	 11.57685	 43.47546	 -0.65800	 67.41988	712.39001	 31.00	
  8.487	-123.723	 65.48364	 15.84572	 38.54433	 13.15704	 41.45236	 -0.68741	 67.38701	712.40002	 31.00	
  8.495	-135.039	 65.45775	 13.37354	 41.33692	 15.12274	 38.87118	 -0.62912	 67.39687	712.32001	 31.10	
  8.494	-146.194	 65.40720	 11.37102	 43.69371	 17.53780	 35.91373	 -0.60325	 67.38549	712.34003	 31.10	
  8.502	-157.493	 65.40678	  9.86622	 45.51259	 20.50475	 32.54602	 -0.62136	 67.42641	712.28003	 31.10	
  8.491	-168.704	 65.31142	  9.08740	 46.40933	 23.78105	 28.94652	 -0.62529	 67.35234	712.34003	 31.10	
  8.500	180.000	 65.30721	  8.80132	 46.58268	 27.27287	 25.39198	 -0.57980	 67.39785	712.22998	 31.10	
 10.200	180.000	 64.15632	  4.98525	 49.42352	 26.24517	 24.35511	 -1.16057	 67.36954	712.31000	 31.10	
 10.191	-170.497	 64.24426	  5.20916	 49.31594	 22.89730	 27.93268	 -1.21965	 67.41338	712.23999	 31.20	
 10.210	-161.034	 64.27403	  5.88796	 48.54669	 19.48757	 31.60852	 -1.34727	 67.40971	712.37000	 31.20	
 10.194	-151.526	 64.30482	  7.05678	 47.05380	 16.38779	 35.13908	 -1.28644	 67.40163	712.33002	 31.20	
 10.190	-142.105	 64.35477	  8.72744	 45.01711	 13.78263	 38.32564	 -1.19694	 67.39525	712.34998	 31.20	
 10.215	-132.646	 64.40694	 10.75232	 42.59632	 11.48391	 41.33458	 -1.22379	 67.43607	712.32001	 31.20	
 10.203	-123.092	 64.43191	 13.26949	 39.68733	  9.51580	 43.90930	 -1.35388	 67.42903	712.29999	 31.20	
 10.192	-113.678	 64.44777	 16.10297	 36.47023	  8.01997	 45.85174	 -1.29537	 67.41665	712.26001	 31.30	
 10.208	-104.249	 64.48203	 19.30418	 33.01469	  6.95773	 47.31964	 -1.26638	 67.40406	712.31000	 31.30	
 10.210	-94.801	 64.52674	 22.76036	 29.40482	  6.40569	 48.13532	 -1.31216	 67.43061	712.27002	 31.30	
 10.210	-85.199	 64.57063	 26.41737	 25.74195	  6.34569	 48.23440	 -1.16347	 67.42599	712.29999	 31.30	
 10.208	-75.751	 64.59523	 30.07353	 22.24332	  6.74872	 47.66990	 -1.34922	 67.42369	712.26001	 31.30	
 10.192	-66.322	 64.60965	 33.65832	 18.96375	  7.75011	 46.42491	 -1.25622	 67.42065	712.23999	 31.30	
 10.203	-56.908	 64.63099	 37.02162	 16.08970	  9.20024	 44.63294	 -1.25399	 67.40276	712.26001	 31.30	
 10.215	-47.354	 64.66661	 40.23516	 13.54948	 11.10598	 42.28580	 -0.97112	 67.42606	712.16998	 31.30	
 10.190	-37.895	 64.66966	 42.91444	 11.37340	 13.38166	 39.43520	 -1.08742	 67.41917	712.14001	 31.30	
 10.194	-28.474	 64.69116	 45.17864	  9.66386	 16.02245	 36.29733	 -0.74714	 67.44685	712.20001	 31.30	
 10.210	-18.966	 64.64828	 46.87509	  8.25550	 19.12687	 32.77004	 -0.60735	 67.39606	712.17999	 31.40	
 10.191	 -9.503	 64.68884	 47.93295	  7.40603	 22.58319	 29.10949	 -0.41331	 67.43735	712.29999	 31.40	
 10.200	  0.000	 64.70154	 48.36546	  6.93958	 25.98727	 25.50591	 -0.34500	 67.46425	712.21002	 31.40	
 10.191	  9.503	 64.65707	 48.07843	  6.89626	 29.78314	 21.85968	 -0.27061	 67.44363	712.15002	 31.40	
 10.210	 18.966	 64.60808	 47.16619	  7.49030	 33.41647	 18.39550	 -0.56841	 67.44460	712.09003	 31.40	
 10.194	 28.474	 64.55010	 45.49752	  8.72211	 36.77110	 15.31102	 -0.55416	 67.39928	712.15002	 31.40	
 10.190	 37.895	 64.55618	 43.41153	 10.35028	 39.98508	 12.55068	 -0.36428	 67.42966	712.21002	 31.40	
 10.215	 47.354	 64.44949	 40.80991	 12.20971	 42.80056	 10.02307	 -0.95012	 67.39225	712.07001	 31.40	
 10.203	 56.908	 64.43557	 37.71925	 14.66575	 45.28199	  8.06079	 -0.57665	 67.42681	712.21997	 31.50	
 10.192	 66.322	 64.40017	 34.38339	 17.48998	 47.06348	  6.63359	 -1.14005	 67.40251	712.21002	 31.50	
 10.208	 75.751	 64.35394	 30.83746	 20.58334	 48.38088	  5.54552	 -0.78898	 67.39590	712.22998	 31.50	
 10.210	 85.199	 64.34764	 27.15309	 23.98988	 49.10232	  5.02054	 -0.94443	 67.42952	712.31000	 31.50	
 10.210	 94.801	 64.29907	 23.51212	 27.62597	 49.16154	  4.95217	 -0.74914	 67.42262	712.14001	 31.50	
 10.208	104.249	 64.24500	 20.03132	 31.21317	 48.52201	  5.43708	 -1.18736	 67.41128	712.20001	 31.50	
 10.192	113.678	 64.19427	 16.74697	 34.72784	 47.28478	  6.30493	 -1.25608	 67.40661	712.16998	 31.50	
 10.203	123.092	 64.16570	 13.77100	 38.04655	 45.51115	  7.59478	 -1.18584	 67.42220	712.21002	 31.50	
 10.215	132.646	 64.10847	 11.10056	 41.14648	 43.04429	  9.44044	 -1.03945	 67.40927	712.21997	 31.60	
 10.190	142.105	 64.11853	  8.95726	 43.89148	 40.24885	 11.79072	 -1.51145	 67.41497	712.26001	 31.60	
 10.194	151.526	 64.11665	  7.30148	 46.09588	 37.05632	 14.49231	 -1.24159	 67.40205	712.19000	 31.60	
 10.210	161.034	 64.06884	  5.97545	 47.83945	 33.67813	 17.40091	 -1.41460	 67.37711	712.23999	 31.60	
 10.191	170.497	 64.12180	  5.23943	 48.87112	 30.02700	 20.80737	 -1.46775	 67.37199	712.26001	 31.60	
 11.899	171.783	 62.75703	  1.29461	 51.58537	 28.86391	 19.61295	 -2.10902	 67.38696	712.27002	 31.60	
 11.890	163.610	 62.74433	  1.98626	 50.66799	 32.60060	 16.25996	 -2.03830	 67.40190	712.23999	 31.60	
 11.889	155.445	 62.71559	  2.96730	 49.15565	 36.06727	 13.18157	 -2.10588	 67.39294	712.25000	 31.70	
 11.909	147.299	 62.71236	  4.32452	 47.20200	 39.42198	 10.32451	 -2.16273	 67.41790	712.31000	 31.70	
 11.902	139.148	 62.71859	  6.18636	 44.69686	 42.47230	  7.82956	 -2.13098	 67.41068	712.19000	 31.70	
 11.894	130.867	 62.76447	  8.52440	 41.80225	 45.24970	  5.75152	 -2.06619	 67.41460	712.26001	 31.70	
 11.897	122.732	 62.81471	 11.14558	 38.64397	 47.63015	  4.08338	 -2.01560	 67.41389	712.19000	 31.70	
 11.903	114.597	 62.81824	 14.02659	 35.30673	 49.49292	  2.71038	 -2.03376	 67.39383	712.28003	 31.70	
 11.893	106.346	 62.89979	 17.27355	 31.75247	 50.85649	  1.69289	 -2.01765	 67.42173	712.27002	 31.80	
 11.892	 98.155	 62.94130	 20.73903	 28.05672	 51.65751	  1.07156	 -1.98896	 67.42065	712.28003	 31.80	
 11.900	 90.000	 62.98143	 24.25256	 24.55167	 51.89610	  0.91834	 -1.75881	 67.39805	712.20001	 31.80	
 11.892	 81.845	 63.01931	 27.84963	 21.25321	 51.53346	  1.28525	 -1.82074	 67.39372	712.22998	 31.80	
 11.893	 73.654	 63.05746	 31.58231	 17.93050	 50.65396	  1.95961	 -1.80626	 67.36925	712.25000	 31.80	
 11.903	 65.403	 63.09586	 35.17382	 14.86653	 49.33929	  3.02530	 -1.82548	 67.39708	712.31000	 31.80	
 11.897	 57.268	 63.11266	 38.50840	 12.12535	 47.35112	  4.55452	 -1.78597	 67.37285	712.28003	 31.80	
 11.894	 49.133	 63.13625	 41.63772	  9.64316	 44.96532	  6.38020	 -1.66778	 67.38553	712.19000	 31.80	
 11.902	 40.852	 63.21209	 44.44731	  7.58498	 42.20961	  8.64190	 -1.43861	 67.41583	712.28003	 31.80	
 11.909	 32.701	 63.19217	 46.79009	  5.92359	 39.09831	 11.20872	 -1.12124	 67.39301	712.19000	 31.80	
 11.889	 24.555	 63.27768	 48.67931	  4.67081	 35.76683	 14.17947	 -1.33386	 67.40814	712.13000	 31.90	
 11.890	 16.390	 63.28619	 50.03341	  3.71624	 32.30601	 17.33853	 -1.05460	 67.38896	712.25000	 31.90	
 11.899	  8.217	 63.32168	 50.85297	  3.16672	 28.56852	 20.79875	 -1.25175	 67.38671	712.27002	 31.90	
 11.900	  0.000	 63.33326	 51.09489	  3.10068	 24.89112	 24.42176	 -1.04224	 67.38810	712.27002	 31.90	
 11.899	 -8.217	 63.36467	 50.73910	  3.48204	 21.42415	 28.05487	 -1.24156	 67.39690	712.27002	 31.90	
 11.890	-16.390	 63.33875	 49.75662	  4.25623	 17.97441	 31.76268	 -1.52532	 67.36495	712.21002	 31.90	
 11.889	-24.555	 63.35343	 48.26865	  5.37485	 14.80305	 35.38028	 -1.52051	 67.36597	712.26001	 31.90	
 11.909	-32.701	 63.31643	 46.27100	  6.78821	 11.98254	 38.69638	 -1.79519	 67.34663	712.22998	 31.90	
 11.902	-40.852	 63.36624	 43.79329	  8.65323	  9.51695	 41.84508	 -1.85997	 67.41084	712.17999	 32.00	
 11.894	-49.133	 63.33463	 40.89481	 10.95048	  7.37900	 44.61106	 -1.66201	 67.38912	712.27002	 32.00	
 11.897	-57.268	 63.29311	 37.67771	 13.46385	  5.44821	 46.92112	 -1.90938	 67.37129	712.25000	 32.00	
 11.903	-65.403	 63.29295	 34.30480	 16.32327	  4.11888	 48.73415	 -1.94766	 67.39579	712.17999	 32.00	
 11.893	-73.654	 63.27642	 30.67250	 19.60067	  3.15763	 50.00551	 -1.98477	 67.35644	712.35999	 32.00	
 11.892	-81.845	 63.25742	 26.93462	 23.08635	  2.45621	 50.76332	 -1.84774	 67.36749	712.21997	 32.00	
 11.900	-90.000	 63.19777	 23.34445	 26.51042	  2.29589	 50.96405	 -1.74774	 67.36308	712.20001	 32.00	
 11.892	-98.155	 63.18024	 19.87688	 30.07768	  2.64226	 50.56934	 -1.92149	 67.35844	712.23999	 32.00	
 11.893	-106.346	 63.15334	 16.50376	 33.72818	  3.27541	 49.60056	 -1.94988	 67.40847	712.12000	 32.00	
 11.903	-114.597	 63.09491	 13.36153	 37.20970	  4.37404	 48.07502	 -2.01747	 67.37150	712.20001	 32.00	
 11.897	-122.732	 63.05828	 10.50980	 40.43822	  5.74478	 46.08726	 -2.07626	 67.38321	712.21002	 32.00	
 11.894	-130.867	 63.03130	  8.06468	 43.44349	  7.52267	 43.58461	 -1.80222	 67.36783	712.21997	 32.00	
 11.902	-139.148	 62.98003	  5.92301	 46.16766	  9.83405	 40.60682	 -1.98824	 67.36128	712.25000	 32.00	
 11.909	-147.299	 62.96581	  4.21142	 48.33667	 12.35191	 37.41328	 -2.01432	 67.37036	712.20001	 32.00	
 11.889	-155.445	 62.91065	  2.85450	 49.99937	 15.19012	 33.98911	 -2.06286	 67.34833	712.19000	 32.00	
 11.890	-163.610	 62.91803	  1.87848	 51.32705	 18.38758	 30.41437	 -2.15057	 67.37171	712.15997	 32.10	
 11.899	-171.783	 62.85593	  1.19481	 52.00350	 21.75759	 26.74964	 -2.16662	 67.37938	712.34003	 32.10	
 11.900	180.000	 62.81578	  1.01540	 52.13382	 25.17555	 23.18177	 -2.15366	 67.37560	712.31000	 32.10	
 13.600	180.000	 61.20524	 -3.14238	 54.61998	 23.96844	 21.81324	 -2.57327	 67.37170	712.21002	 32.10	
 13.608	-172.853	 61.26991	 -3.00356	 54.56921	 20.55204	 25.32826	 -2.55009	 67.41196	712.38000	 32.10	
 13.611	-165.583	 61.31025	 -2.40726	 53.86704	 17.11497	 29.00791	 -2.52138	 67.37155	712.34998	 32.10	
 13.601	-158.353	 61.37093	 -1.40481	 52.84272	 13.88182	 32.68122	 -2.45742	 67.37729	712.34003	 32.10	
 13.609	-151.210	 61.40444	 -0.20823	 51.37122	 10.97088	 36.15416	 -2.35723	 67.36787	712.33002	 32.10	
 13.611	-143.999	 61.41709	  1.26186	 49.34679	  8.23390	 39.56303	 -2.23160	 67.36039	712.31000	 32.10	
 13.601	-136.825	 61.47061	  3.03547	 46.96151	  5.63085	 42.72926	 -2.21914	 67.38987	712.25000	 32.10	
 13.596	-129.640	 61.47190	  5.19694	 44.08567	  3.61591	 45.55051	 -2.24119	 67.34798	712.32001	 32.10	
