FileType=PCF
NHL=14
Date=08/24/17	13:43:34
Facility=APL
Serial=16328-3
Customer=NASA
NP=6
Mach=0.200000
Calibration=1:1
CalPts=490
TstPts=95
PortNumbering=AP Standard
Units=Torr C m/s kg/m^3 deg mm 
Theta[deg]	Phi[deg]	P1[Torr]	P2[Torr]	P3[Torr]	P4[Torr]	P5[Torr]	P6[Torr]	Pt[Torr]	Ps[Abs,Torr]	Ts[C]	
  0.000	  0.000	 19.59071	 10.30091	 10.03294	 10.03104	 10.35131	  0.19115	 19.57031	705.46503	 24.60	
  1.691	128.401	 19.60180	  9.68827	 10.63080	 10.80806	  9.54940	  0.18668	 19.58233	705.46100	 24.60	
  1.692	 77.194	 19.56327	 10.51094	  9.76957	 10.97820	  9.35370	  0.18140	 19.53814	705.60901	 24.60	
  1.699	 26.182	 19.57201	 11.18897	  9.18012	 10.42722	  9.86941	  0.17970	 19.54851	705.40100	 24.50	
  1.699	-26.182	 19.56530	 11.15483	  9.17690	  9.52984	 10.77600	  0.17884	 19.55014	705.38098	 24.50	
  1.692	-77.194	 19.58760	 10.45965	  9.81842	  9.09221	 11.30056	  0.16533	 19.56970	705.48499	 24.50	
  1.691	-128.401	 19.55637	  9.61184	 10.63374	  9.24499	 11.10433	  0.16758	 19.53542	705.47400	 24.50	
  1.700	180.000	 19.56108	  9.28757	 11.01794	  9.99214	 10.31856	  0.17529	 19.54162	705.47498	 24.50	
  3.400	180.000	 19.52415	  8.32762	 11.98225	  9.89505	 10.22099	  0.15047	 19.53368	705.61298	 24.50	
  3.388	-152.325	 19.55440	  8.52125	 11.74978	  9.04749	 11.16329	  0.10793	 19.57154	705.49902	 24.50	
  3.397	-124.529	 19.55854	  9.03346	 11.10171	  8.42110	 11.89734	  0.11502	 19.57808	705.65698	 24.50	
  3.399	-96.763	 19.53946	  9.87843	 10.16411	  8.09918	 12.22913	  0.08001	 19.55900	705.53101	 24.50	
  3.394	-69.283	 19.53247	 10.82200	  9.28494	  8.18142	 12.11644	  0.08714	 19.56110	705.54199	 24.50	
  3.400	-41.398	 19.47299	 11.63382	  8.57078	  8.62433	 11.51395	  0.09328	 19.50014	705.61798	 24.50	
  3.401	-14.021	 19.50998	 12.13073	  8.17226	  9.34155	 10.74462	  0.12486	 19.54372	705.63202	 24.50	
  3.401	 14.021	 19.51125	 12.15926	  8.15105	 10.33885	  9.73189	  0.11352	 19.53957	705.55298	 24.50	
  3.400	 41.398	 19.53912	 11.76501	  8.54204	 11.22760	  9.00826	  0.13797	 19.55364	705.58099	 24.50	
  3.394	 69.283	 19.53246	 10.94488	  9.25742	 11.78676	  8.51005	  0.13412	 19.53892	705.58197	 24.50	
  3.399	 96.763	 19.57156	  9.99603	 10.12253	 11.93408	  8.44471	  0.12771	 19.56396	705.64801	 24.50	
  3.397	124.529	 19.54890	  9.15204	 11.03915	 11.58865	  8.67643	  0.13191	 19.55150	705.63202	 24.50	
  3.388	152.325	 19.55296	  8.56566	 11.71972	 10.84416	  9.32348	  0.13943	 19.54739	705.60602	 24.50	
  5.099	161.165	 19.47012	  7.40432	 12.73769	 10.76750	  9.11958	  0.07561	 19.55757	705.61700	 24.50	
  5.109	142.013	 19.44013	  7.85260	 12.19300	 11.67458	  8.33274	  0.06079	 19.52423	705.58398	 24.50	
  5.095	123.033	 19.47389	  8.57043	 11.40648	 12.37618	  7.77495	  0.04374	 19.54384	705.58600	 24.50	
  5.105	104.191	 19.48311	  9.39635	 10.44863	 12.80446	  7.43411	  0.03067	 19.55608	705.59900	 24.50	
  5.093	 85.207	 19.46832	 10.34844	  9.51756	 12.86644	  7.35967	  0.02613	 19.54588	705.61798	 24.50	
  5.104	 66.290	 19.46340	 11.33795	  8.61710	 12.60044	  7.56577	  0.01573	 19.55846	705.56097	 24.50	
  5.094	 47.331	 19.42964	 12.17916	  7.82530	 11.97589	  8.06703	  0.01867	 19.54110	705.48199	 24.50	
  5.089	 28.397	 19.42947	 12.81072	  7.28648	 11.14614	  8.76863	  0.01937	 19.55600	705.56500	 24.50	
  5.096	  9.576	 19.42943	 13.14002	  7.01784	 10.16936	  9.59428	  0.03610	 19.56806	705.42902	 24.50	
  5.096	 -9.576	 19.38348	 13.08043	  7.00751	  9.12887	 10.58639	  0.03235	 19.52733	705.50800	 24.50	
  5.089	-28.397	 19.36933	 12.70100	  7.32173	  8.33474	 11.50548	  0.03326	 19.51831	705.51099	 24.50	
  5.094	-47.331	 19.41414	 12.05836	  7.90548	  7.63230	 12.35166	  0.01498	 19.56108	705.47998	 24.50	
  5.104	-66.290	 19.39550	 11.15167	  8.69975	  7.14657	 12.93428	 -0.02213	 19.54037	705.58099	 24.50	
  5.093	-85.207	 19.41330	 10.16023	  9.61870	  6.95965	 13.18731	 -0.02229	 19.55087	705.47198	 24.50	
  5.105	-104.191	 19.42693	  9.19421	 10.53118	  7.04303	 13.10163	 -0.02476	 19.56094	705.46100	 24.50	
  5.095	-123.033	 19.44246	  8.37729	 11.48582	  7.41881	 12.66819	 -0.00246	 19.56531	705.41302	 24.50	
  5.109	-142.013	 19.43464	  7.74657	 12.25959	  8.04884	 11.93935	  0.01055	 19.54603	705.54999	 24.50	
  5.099	-161.165	 19.43063	  7.35185	 12.75564	  8.84639	 11.02153	  0.02866	 19.54147	705.45801	 24.50	
  5.100	180.000	 19.46146	  7.24926	 12.92788	  9.76250	 10.02887	  0.03965	 19.56204	705.44000	 24.50	
  6.800	180.000	 19.31626	  6.09958	 13.85423	  9.60671	  9.81688	 -0.05867	 19.57898	705.49902	 24.50	
  6.796	-166.229	 19.25169	  6.14037	 13.71053	  8.69358	 10.77565	 -0.06885	 19.52823	705.45801	 24.50	
  6.808	-152.311	 19.25245	  6.40837	 13.35849	  7.85711	 11.72772	 -0.10169	 19.54221	705.57001	 24.50	
  6.795	-138.383	 19.23656	  6.84050	 12.75110	  7.07953	 12.59608	 -0.11549	 19.53074	705.59198	 24.50	
  6.792	-124.591	 19.24280	  7.50779	 11.97514	  6.46153	 13.30995	 -0.12008	 19.54746	705.67499	 24.50	
  6.787	-110.754	 19.23564	  8.31757	 11.06109	  6.04160	 13.80968	 -0.13785	 19.55280	705.60999	 24.50	
  6.800	-96.985	 19.21501	  9.17283	 10.07838	  5.81635	 14.04540	 -0.16133	 19.54534	705.45502	 24.50	
  6.800	-83.015	 19.21704	 10.15579	  9.20436	  5.79659	 14.06285	 -0.16845	 19.55260	705.56097	 24.50	
  6.787	-69.246	 19.21422	 11.14271	  8.31144	  5.96674	 13.82278	 -0.16325	 19.55753	705.65198	 24.50	
  6.792	-55.409	 19.19923	 12.06153	  7.44711	  6.34377	 13.33910	 -0.13673	 19.54542	705.50000	 24.50	
  6.795	-41.617	 19.20560	 12.87223	  6.73117	  6.91289	 12.65245	 -0.10871	 19.55714	705.53400	 24.50	
  6.808	-27.689	 19.17249	 13.47579	  6.17930	  7.66746	 11.75821	 -0.07266	 19.51886	705.56799	 24.50	
  6.796	-13.771	 19.21538	 13.89712	  5.88567	  8.51594	 10.83993	 -0.07537	 19.56080	705.58600	 24.50	
  6.800	  0.000	 19.22684	 14.05190	  5.78679	  9.41553	  9.85107	 -0.08737	 19.56381	705.45099	 24.50	
  6.796	 13.771	 19.23075	 13.94285	  5.87946	 10.41229	  9.00063	 -0.10490	 19.55273	705.48798	 24.50	
  6.808	 27.689	 19.26900	 13.63070	  6.15451	 11.39457	  8.19497	 -0.09304	 19.57960	705.43201	 24.50	
  6.795	 41.617	 19.28033	 13.04407	  6.66696	 12.26627	  7.45872	 -0.11005	 19.56750	705.56799	 24.50	
  6.792	 55.409	 19.26297	 12.27481	  7.34460	 12.96554	  6.85370	 -0.10748	 19.54256	705.45502	 24.50	
  6.787	 69.246	 19.26519	 11.37089	  8.17480	 13.46105	  6.42172	 -0.11004	 19.52396	705.39301	 24.50	
  6.800	 83.015	 19.26844	 10.40617	  9.06562	 13.73780	  6.22383	 -0.11687	 19.51583	705.57599	 24.50	
  6.800	 96.985	 19.33041	  9.47175	 10.01426	 13.78848	  6.22545	 -0.10277	 19.55935	705.50500	 24.50	
  6.787	110.754	 19.30840	  8.58971	 10.96343	 13.52840	  6.43129	 -0.09004	 19.53943	705.67499	 24.50	
  6.792	124.591	 19.31430	  7.79681	 11.89040	 13.06035	  6.82490	 -0.07071	 19.54112	705.52301	 24.50	
  6.795	138.383	 19.29260	  7.09441	 12.65917	 12.36087	  7.40576	 -0.04402	 19.50792	705.57300	 24.50	
  6.808	152.311	 19.30786	  6.53551	 13.30995	 11.53734	  8.12959	 -0.02545	 19.54726	705.56799	 24.50	
  6.796	166.229	 19.25088	  6.19871	 13.65481	 10.55274	  8.91579	 -0.02683	 19.49539	705.59900	 24.50	
  8.491	168.704	 19.05419	  5.00072	 14.55236	 10.39581	  8.67013	 -0.16232	 19.52894	705.53003	 24.50	
  8.502	157.493	 19.06698	  5.26553	 14.23482	 11.37000	  7.82492	 -0.14561	 19.53770	705.55402	 24.50	
  8.494	146.194	 19.03913	  5.71860	 13.67450	 12.26501	  7.01106	 -0.16262	 19.49518	705.64600	 24.50	
  8.495	135.039	 19.10454	  6.34492	 13.04083	 13.12268	  6.32676	 -0.18813	 19.55592	705.62402	 24.50	
  8.487	123.723	 19.06498	  7.07572	 12.16312	 13.76617	  5.73363	 -0.22113	 19.51477	705.64001	 24.50	
  8.492	112.575	 19.05898	  7.90140	 11.22411	 14.23614	  5.31370	 -0.23579	 19.51030	705.68799	 24.50	
  8.510	101.220	 19.07594	  8.79794	 10.23944	 14.55336	  5.06307	 -0.27583	 19.53492	705.59497	 24.50	
  8.500	 90.000	 19.08199	  9.72299	  9.33986	 14.63712	  5.02873	 -0.27807	 19.55259	705.50598	 24.40	
  8.510	 78.780	 19.05332	 10.70615	  8.38025	 14.50918	  5.09887	 -0.27226	 19.52958	705.41199	 24.40	
  8.492	 67.425	 19.03432	 11.68291	  7.44135	 14.16642	  5.35659	 -0.25784	 19.52698	705.61700	 24.40	
  8.487	 56.277	 19.01404	 12.58491	  6.62600	 13.64269	  5.77571	 -0.25492	 19.53310	705.59802	 24.40	
  8.495	 44.961	 19.04062	 13.42896	  5.87617	 12.95878	  6.36776	 -0.25693	 19.57201	705.62903	 24.50	
  8.494	 33.806	 18.99651	 14.04880	  5.26401	 12.10121	  7.07910	 -0.25160	 19.54876	705.54700	 24.50	
  8.502	 22.507	 18.94695	 14.50355	  4.82153	 11.13766	  7.86868	 -0.23909	 19.51248	705.57001	 24.40	
  8.491	 11.296	 18.92984	 14.77508	  4.61651	 10.14552	  8.73237	 -0.23138	 19.51254	705.61298	 24.50	
  8.500	  0.000	 18.91510	 14.85290	  4.49721	  9.12110	  9.59643	 -0.22443	 19.51411	705.50299	 24.50	
  8.491	-11.296	 18.91149	 14.71487	  4.57808	  8.21607	 10.59766	 -0.21093	 19.51308	705.55402	 24.40	
  8.502	-22.507	 18.91865	 14.40128	  4.80967	  7.37118	 11.58207	 -0.20370	 19.52860	705.53699	 24.40	
  8.494	-33.806	 18.88043	 13.83604	  5.31304	  6.51378	 12.49559	 -0.22142	 19.48793	705.55402	 24.40	
  8.495	-44.961	 18.91193	 13.16577	  5.91760	  5.77575	 13.34350	 -0.26676	 19.52989	705.48901	 24.40	
  8.487	-56.277	 18.90754	 12.30875	  6.68751	  5.23985	 13.99579	 -0.29784	 19.52512	705.55298	 24.40	
  8.492	-67.425	 18.93851	 11.38340	  7.55521	  4.86003	 14.50429	 -0.30764	 19.54428	705.55798	 24.40	
  8.510	-78.780	 18.94407	 10.38568	  8.46893	  4.63394	 14.83168	 -0.31713	 19.54803	705.55902	 24.40	
  8.500	-90.000	 18.93607	  9.36516	  9.39528	  4.56550	 14.90484	 -0.32854	 19.53341	705.38501	 24.40	
  8.510	-101.220	 18.93550	  8.41300	 10.33904	  4.66867	 14.79414	 -0.31094	 19.53077	705.51099	 24.40	
  8.492	-112.575	 18.93923	  7.53030	 11.33436	  4.93862	 14.45872	 -0.28572	 19.51280	705.41602	 24.40	
  8.487	-123.723	 18.95977	  6.72845	 12.26591	  5.36854	 13.96253	 -0.26427	 19.52595	705.48901	 24.40	
  8.495	-135.039	 18.93741	  6.01600	 13.07050	  5.97292	 13.26357	 -0.23785	 19.48960	705.49597	 24.40	
  8.494	-146.194	 18.97201	  5.46599	 13.76194	  6.72873	 12.44646	 -0.23164	 19.50827	705.57001	 24.40	
  8.502	-157.493	 19.00812	  5.07376	 14.28657	  7.59053	 11.51279	 -0.21866	 19.53442	705.40997	 24.40	
  8.491	-168.704	 18.98405	  4.88773	 14.54102	  8.44707	 10.52609	 -0.20551	 19.49508	705.51099	 24.40	
  8.500	180.000	 19.01202	  4.86870	 14.64912	  9.35945	  9.53000	 -0.20138	 19.49886	705.49103	 24.40	
 10.200	180.000	 18.69759	  3.67529	 15.41431	  9.10108	  9.26390	 -0.35672	 19.49601	705.41803	 24.40	
 10.191	-170.497	 18.69566	  3.68896	 15.35766	  8.18582	 10.24163	 -0.37654	 19.51183	705.56702	 24.50	
 10.210	-161.034	 18.68671	  3.84494	 15.12031	  7.27622	 11.24603	 -0.37334	 19.52473	705.51300	 24.40	
 10.194	-151.526	 18.68576	  4.14198	 14.69706	  6.37356	 12.22986	 -0.36020	 19.53822	705.55103	 24.50	
 10.190	-142.105	 18.64913	  4.58267	 14.08475	  5.53993	 13.11071	 -0.35940	 19.52112	705.57300	 24.50	
 10.215	-132.646	 18.62567	  5.16893	 13.35873	  4.81538	 13.89872	 -0.36641	 19.51485	705.56799	 24.50	
 10.203	-123.092	 18.62115	  5.89866	 12.50166	  4.25754	 14.58529	 -0.38939	 19.52277	705.70599	 24.50	
 10.192	-113.678	 18.59534	  6.71771	 11.54750	  3.85202	 15.09202	 -0.43550	 19.51147	705.59003	 24.50	
 10.208	-104.249	 18.59401	  7.60230	 10.56173	  3.55823	 15.48004	 -0.47004	 19.52569	705.57800	 24.50	
 10.210	-94.801	 18.58103	  8.51188	  9.57224	  3.39138	 15.66629	 -0.49238	 19.52460	705.80902	 24.50	
 10.210	-85.199	 18.55798	  9.52852	  8.61138	  3.36478	 15.66310	 -0.48831	 19.51214	705.67200	 24.50	
 10.208	-75.751	 18.56331	 10.54975	  7.65751	  3.47574	 15.50551	 -0.50104	 19.51740	705.64398	 24.40	
 10.192	-66.322	 18.57654	 11.55590	  6.73770	  3.72795	 15.15832	 -0.47722	 19.53136	705.54999	 24.50	
 10.203	-56.908	 18.55222	 12.50783	  5.83746	  4.10374	 14.62491	 -0.46191	 19.51006	705.61499	 24.40	
 10.215	-47.354	 18.53239	 13.36933	  5.08897	  4.60675	 13.94806	 -0.42712	 19.48971	705.46600	 24.40	
 10.190	-37.895	 18.53631	 14.11353	  4.39419	  5.31499	 13.16662	 -0.39351	 19.48903	705.60901	 24.50	
 10.194	-28.474	 18.58138	 14.75477	  3.91918	  6.12378	 12.31480	 -0.35948	 19.53399	705.57800	 24.40	
 10.210	-18.966	 18.56079	 15.20419	  3.55570	  6.99874	 11.32744	 -0.34459	 19.50662	705.66302	 24.40	
 10.191	 -9.503	 18.55045	 15.46622	  3.34978	  7.89429	 10.31931	 -0.36709	 19.47933	705.70001	 24.40	
 10.200	  0.000	 18.57588	 15.59559	  3.27681	  8.83565	  9.37214	 -0.40265	 19.49924	705.63397	 24.50	
 10.191	  9.503	 18.59371	 15.55260	  3.31672	  9.86412	  8.44551	 -0.41541	 19.50531	705.56500	 24.50	
 10.210	 18.966	 18.61149	 15.33684	  3.48383	 10.86476	  7.54644	 -0.41737	 19.52050	705.60699	 24.50	
 10.194	 28.474	 18.59553	 14.90521	  3.85645	 11.80268	  6.67078	 -0.42099	 19.47955	705.66803	 24.50	
 10.190	 37.895	 18.65381	 14.37440	  4.35220	 12.74639	  5.88522	 -0.42129	 19.52058	705.50500	 24.40	
 10.215	 47.354	 18.66842	 13.68914	  4.96904	 13.57535	  5.16731	 -0.41959	 19.52535	705.42700	 24.40	
 10.203	 56.908	 18.66207	 12.83874	  5.77056	 14.24818	  4.59836	 -0.41227	 19.50191	705.64801	 24.40	
 10.192	 66.322	 18.71719	 11.93170	  6.65818	 14.80823	  4.22797	 -0.43568	 19.52609	705.53601	 24.40	
 10.208	 75.751	 18.76758	 10.98160	  7.59170	 15.21622	  3.97557	 -0.45201	 19.57160	705.62402	 24.40	
 10.210	 85.199	 18.77592	  9.97459	  8.49502	 15.40777	  3.86397	 -0.46122	 19.55630	705.59003	 24.40	
 10.210	 94.801	 18.78934	  9.00969	  9.48662	 15.43149	  3.86484	 -0.47686	 19.55024	705.47498	 24.40	
 10.208	104.249	 18.76975	  8.07410	 10.44732	 15.24674	  3.96332	 -0.44975	 19.52481	705.60999	 24.40	
 10.192	113.678	 18.78266	  7.17816	 11.45107	 14.91695	  4.20538	 -0.41407	 19.52640	705.60101	 24.40	
 10.203	123.092	 18.75582	  6.30615	 12.38558	 14.41367	  4.55122	 -0.38322	 19.50476	705.53003	 24.40	
 10.215	132.646	 18.78512	  5.52123	 13.28201	 13.79933	  5.12333	 -0.35449	 19.53484	705.54700	 24.40	
 10.190	142.105	 18.74999	  4.85850	 14.00776	 12.97868	  5.81795	 -0.32698	 19.50966	705.53900	 24.40	
 10.194	151.526	 18.76060	  4.34763	 14.62331	 12.09099	  6.63236	 -0.27954	 19.51277	705.60901	 24.40	
 10.210	161.034	 18.74869	  3.96341	 15.06798	 11.13757	  7.47565	 -0.28161	 19.52039	705.53003	 24.40	
 10.191	170.497	 18.78145	  3.77395	 15.36441	 10.16167	  8.40068	 -0.31986	 19.55700	705.63397	 24.40	
 11.899	171.783	 18.37934	  2.58019	 16.09700	  9.82588	  8.03343	 -0.49027	 19.53809	705.56799	 24.40	
 11.890	163.610	 18.40206	  2.76461	 15.86125	 10.84613	  7.10802	 -0.44548	 19.54849	705.59003	 24.40	
 11.889	155.445	 18.36677	  3.05011	 15.43538	 11.80715	  6.18707	 -0.42956	 19.50261	705.51099	 24.40	
 11.909	147.299	 18.38131	  3.44751	 14.90775	 12.75788	  5.33350	 -0.45504	 19.51205	705.45502	 24.40	
 11.902	139.148	 18.42806	  4.01982	 14.26681	 13.64201	  4.58418	 -0.48440	 19.55626	705.64600	 24.40	
 11.894	130.867	 18.41789	  4.71610	 13.46008	 14.38725	  3.94649	 -0.52172	 19.53339	705.54498	 24.40	
 11.897	122.732	 18.43162	  5.48733	 12.59423	 15.04916	  3.42723	 -0.55669	 19.54943	705.49597	 24.40	
 11.903	114.597	 18.43690	  6.35920	 11.64244	 15.56015	  3.02683	 -0.61080	 19.56910	705.38501	 24.40	
 11.893	106.346	 18.41408	  7.29776	 10.61410	 15.89876	  2.75646	 -0.64395	 19.54156	705.48901	 24.40	
 11.892	 98.155	 18.39592	  8.26613	  9.62773	 16.10035	  2.60582	 -0.66616	 19.53441	705.48297	 24.40	
 11.900	 90.000	 18.37216	  9.19270	  8.61691	 16.14615	  2.57832	 -0.66630	 19.52323	705.49597	 24.40	
 11.892	 81.845	 18.39760	 10.17049	  7.62110	 16.07698	  2.66505	 -0.65581	 19.56643	705.55103	 24.40	
 11.893	 73.654	 18.35701	 11.16371	  6.63179	 15.80000	  2.83438	 -0.61920	 19.53822	705.51300	 24.40	
 11.903	 65.403	 18.32645	 12.13361	  5.71338	 15.37869	  3.10306	 -0.58131	 19.52934	705.57300	 24.40	
 11.897	 57.268	 18.29770	 13.05524	  4.88535	 14.80957	  3.51889	 -0.56867	 19.51117	705.58398	 24.40	
 11.894	 49.133	 18.25744	 13.87015	  4.10830	 14.10969	  4.03959	 -0.58223	 19.48272	705.49200	 24.40	
 11.902	 40.852	 18.28448	 14.66185	  3.46157	 13.36150	  4.69067	 -0.58076	 19.54546	705.49701	 24.40	
 11.909	 32.701	 18.26228	 15.27817	  2.93620	 12.48082	  5.42047	 -0.58982	 19.54255	705.50800	 24.40	
 11.889	 24.555	 18.24645	 15.75843	  2.54938	 11.51066	  6.29061	 -0.58833	 19.53240	705.45099	 24.40	
 11.890	 16.390	 18.26216	 16.12947	  2.27379	 10.53886	  7.19808	 -0.58640	 19.56504	705.56201	 24.40	
 11.899	  8.217	 18.20704	 16.28479	  2.12287	  9.50981	  8.10641	 -0.57653	 19.52658	705.62903	 24.40	
 11.900	  0.000	 18.21077	 16.34094	  2.09972	  8.49340	  9.05922	 -0.55005	 19.54403	705.58698	 24.40	
 11.899	 -8.217	 18.15597	 16.20606	  2.14237	  7.53744	  9.98518	 -0.52487	 19.49560	705.65997	 24.40	
 11.890	-16.390	 18.18799	 15.97480	  2.34298	  6.61244	 11.01482	 -0.50540	 19.53746	705.50299	 24.40	
 11.889	-24.555	 18.16036	 15.55757	  2.64712	  5.67614	 11.99804	 -0.48747	 19.52215	705.53900	 24.40	
 11.909	-32.701	 18.17391	 15.02754	  3.06805	  4.84060	 12.93660	 -0.51622	 19.54785	705.60101	 24.40	
 11.902	-40.852	 18.21037	 14.38033	  3.61563	  4.12387	 13.81174	 -0.53461	 19.57878	705.63202	 24.40	
 11.894	-49.133	 18.17563	 13.55267	  4.28974	  3.49958	 14.55383	 -0.57547	 19.52825	705.49902	 24.40	
 11.897	-57.268	 18.15736	 12.66549	  4.99612	  2.96117	 15.18960	 -0.61623	 19.51222	705.58099	 24.40	
 11.903	-65.403	 18.16516	 11.72581	  5.87695	  2.54580	 15.72121	 -0.62735	 19.52654	705.55298	 24.40	
 11.893	-73.654	 18.17896	 10.71363	  6.83836	  2.28166	 16.09406	 -0.63268	 19.54248	705.48901	 24.40	
 11.892	-81.845	 18.16666	  9.69435	  7.81633	  2.14426	 16.29847	 -0.63819	 19.52019	705.45203	 24.40	
 11.900	-90.000	 18.18266	  8.68022	  8.79881	  2.10969	 16.37003	 -0.64846	 19.52124	705.60901	 24.40	
 11.892	-98.155	 18.18731	  7.69585	  9.74045	  2.20238	 16.28013	 -0.63540	 19.51201	705.40900	 24.40	
 11.893	-106.346	 18.17314	  6.74992	 10.74757	  2.36395	 16.02682	 -0.62402	 19.49531	705.58099	 24.40	
 11.903	-114.597	 18.23231	  5.87095	 11.77345	  2.66972	 15.69208	 -0.58945	 19.55794	705.45801	 24.40	
 11.897	-122.732	 18.24324	  5.04158	 12.70401	  3.15581	 15.15917	 -0.53731	 19.55158	705.59198	 24.40	
 11.894	-130.867	 18.23982	  4.35049	 13.55557	  3.68960	 14.48306	 -0.51635	 19.52887	705.61798	 24.40	
 11.902	-139.148	 18.26278	  3.75959	 14.33975	  4.33911	 13.70050	 -0.50449	 19.53051	705.64600	 24.40	
 11.909	-147.299	 18.30308	  3.27323	 15.01544	  5.10276	 12.86404	 -0.50702	 19.55914	705.51099	 24.40	
 11.889	-155.445	 18.32525	  2.90862	 15.52611	  5.97776	 11.91676	 -0.52676	 19.55980	705.69098	 24.40	
 11.890	-163.610	 18.37099	  2.65571	 15.92915	  6.89907	 10.93395	 -0.54121	 19.58340	705.59198	 24.40	
 11.899	-171.783	 18.36789	  2.52582	 16.14149	  7.83288	  9.91854	 -0.54704	 19.56570	705.68597	 24.40	
 11.900	180.000	 18.34812	  2.50796	 16.17534	  8.78980	  8.93948	 -0.52800	 19.52466	705.52002	 24.40	
 13.600	180.000	 17.89521	  1.33882	 16.83403	  8.40377	  8.51925	 -0.68593	 19.52121	705.63000	 24.40	
 13.608	-172.853	 17.87988	  1.34286	 16.78571	  7.43832	  9.46590	 -0.71289	 19.52997	705.65503	 24.40	
 13.611	-165.583	 17.87021	  1.44904	 16.60030	  6.45257	 10.48895	 -0.72462	 19.53820	705.44098	 24.40	
 13.601	-158.353	 17.85923	  1.67697	 16.26546	  5.49970	 11.51072	 -0.70779	 19.54886	705.44397	 24.40	
 13.609	-151.210	 17.83389	  2.01917	 15.79804	  4.66891	 12.45998	 -0.67539	 19.53989	705.45099	 24.40	
 13.611	-143.999	 17.85814	  2.44046	 15.24264	  3.90037	 13.40202	 -0.66450	 19.58216	705.58197	 24.40	
 13.601	-136.825	 17.84217	  2.95539	 14.54128	  3.19794	 14.25208	 -0.64224	 19.57856	705.57300	 24.40	
 13.596	-129.640	 17.78905	  3.56042	 13.71385	  2.57837	 14.98560	 -0.64028	 19.54928	705.63397	 24.40	
