FileType=PCF
NHL=14
Date=08/24/17	13:04:23
Facility=APL
Serial=16328-3
Customer=NASA
NP=6
Mach=0.150000
Calibration=1:1
CalPts=490
TstPts=95
PortNumbering=AP Standard
Units=Torr C m/s kg/m^3 deg mm 
Theta[deg]	Phi[deg]	P1[Torr]	P2[Torr]	P3[Torr]	P4[Torr]	P5[Torr]	P6[Torr]	Pt[Torr]	Ps[Abs,Torr]	Ts[C]	
  0.000	  0.000	 10.50777	  5.54076	  5.41748	  5.39686	  5.58700	  0.08859	 10.49339	704.31403	 24.10	
  1.691	128.401	 10.51766	  5.22849	  5.72784	  5.79835	  5.18011	  0.08890	 10.50621	704.48999	 24.10	
  1.692	 77.194	 10.50812	  5.65790	  5.27755	  5.85795	  5.09054	  0.08495	 10.49876	704.39099	 24.10	
  1.699	 26.182	 10.46217	  5.95087	  4.92791	  5.59309	  5.31562	  0.07879	 10.45627	704.36200	 24.10	
  1.699	-26.182	 10.46720	  5.95907	  4.92752	  5.13897	  5.76140	  0.06978	 10.45628	704.39600	 24.10	
  1.692	-77.194	 10.47640	  5.59474	  5.28313	  4.87330	  6.06447	  0.07884	 10.46690	704.41302	 24.10	
  1.691	-128.401	 10.46683	  5.16664	  5.71914	  4.98042	  5.93513	  0.07295	 10.45776	704.42102	 24.00	
  1.700	180.000	 10.48313	  5.00839	  5.92314	  5.37218	  5.56405	  0.08331	 10.47117	704.30298	 24.00	
  3.400	180.000	 10.47242	  4.45150	  6.43369	  5.30630	  5.50060	  0.06433	 10.48016	704.37402	 24.00	
  3.388	-152.325	 10.47855	  4.54907	  6.30702	  4.84059	  5.99136	  0.04348	 10.48733	704.35101	 24.00	
  3.397	-124.529	 10.46122	  4.83690	  5.94372	  4.47481	  6.37998	  0.03296	 10.47018	704.32898	 24.00	
  3.399	-96.763	 10.45721	  5.29307	  5.44853	  4.30213	  6.57505	  0.03073	 10.46904	704.33398	 24.00	
  3.394	-69.283	 10.46391	  5.79103	  4.96535	  4.36126	  6.51666	  0.02951	 10.48079	704.38800	 24.00	
  3.400	-41.398	 10.44392	  6.22809	  4.55181	  4.61120	  6.20000	  0.04170	 10.45850	704.28699	 24.00	
  3.401	-14.021	 10.46739	  6.49607	  4.35257	  5.02921	  5.77041	  0.03876	 10.48166	704.31403	 24.00	
  3.401	 14.021	 10.45073	  6.50329	  4.34312	  5.54588	  5.24009	  0.04336	 10.46542	704.32098	 24.00	
  3.400	 41.398	 10.46332	  6.27743	  4.55408	  6.00638	  4.82862	  0.04707	 10.47535	704.36603	 24.00	
  3.394	 69.283	 10.46224	  5.85307	  4.93580	  6.29783	  4.57202	  0.03890	 10.46713	704.35999	 24.00	
  3.399	 96.763	 10.45102	  5.33887	  5.42760	  6.37321	  4.50148	  0.05325	 10.45168	704.42798	 24.00	
  3.397	124.529	 10.46521	  4.89486	  5.91727	  6.19848	  4.66157	  0.05289	 10.46538	704.40802	 24.00	
  3.388	152.325	 10.46692	  4.58004	  6.28135	  5.80905	  5.01102	  0.05857	 10.46713	704.40802	 24.00	
  5.099	161.165	 10.42862	  3.94792	  6.83826	  5.78250	  4.88818	  0.03133	 10.47873	704.40802	 24.00	
  5.109	142.013	 10.43062	  4.18631	  6.55444	  6.26523	  4.44545	  0.02506	 10.47265	704.46698	 24.00	
  5.095	123.033	 10.44128	  4.56061	  6.13435	  6.63564	  4.13796	  0.01945	 10.48315	704.39301	 24.00	
  5.105	104.191	 10.43711	  5.01675	  5.62835	  6.85520	  3.95249	  0.00691	 10.47805	704.46997	 24.00	
  5.093	 85.207	 10.43870	  5.54974	  5.09458	  6.89121	  3.92169	  0.00268	 10.48208	704.50000	 24.00	
  5.104	 66.290	 10.41986	  6.06447	  4.59303	  6.73311	  4.03025	 -0.00215	 10.47334	704.35999	 24.00	
  5.094	 47.331	 10.42180	  6.52457	  4.17853	  6.41866	  4.30107	 -0.00231	 10.47982	704.40002	 24.00	
  5.089	 28.397	 10.42306	  6.85797	  3.88687	  5.98353	  4.68567	  0.00042	 10.48792	704.41400	 24.00	
  5.096	  9.576	 10.39030	  7.01139	  3.72435	  5.45277	  5.15907	 -0.00046	 10.46133	704.35498	 24.00	
  5.096	 -9.576	 10.38668	  6.99519	  3.72864	  4.91737	  5.69604	  0.00238	 10.46461	704.47302	 24.00	
  5.089	-28.397	 10.37755	  6.78984	  3.89166	  4.44535	  6.19116	  0.00224	 10.45189	704.40002	 24.00	
  5.094	-47.331	 10.40006	  6.44947	  4.20148	  4.06682	  6.64649	 -0.00687	 10.47545	704.38501	 24.00	
  5.104	-66.290	 10.39400	  5.97768	  4.62040	  3.79756	  6.95513	 -0.02132	 10.47262	704.47498	 24.00	
  5.093	-85.207	 10.39047	  5.44858	  5.12361	  3.68995	  7.08436	 -0.02760	 10.46586	704.34100	 24.00	
  5.105	-104.191	 10.41375	  4.93568	  5.67183	  3.74043	  7.05058	 -0.02517	 10.48260	704.35498	 24.00	
  5.095	-123.033	 10.42439	  4.48433	  6.17769	  3.94982	  6.81807	 -0.01673	 10.48881	704.38300	 24.00	
  5.109	-142.013	 10.41778	  4.12982	  6.58474	  4.28534	  6.42566	 -0.00608	 10.47824	704.32397	 24.00	
  5.099	-161.165	 10.40243	  3.91197	  6.83973	  4.73037	  5.92622	  0.00788	 10.46307	704.38800	 24.00	
  5.100	180.000	 10.39769	  3.84949	  6.91905	  5.23769	  5.39408	  0.01927	 10.44985	704.38000	 24.00	
  6.800	180.000	 10.31487	  3.25189	  7.40663	  5.15587	  5.29163	 -0.04437	 10.45565	704.48401	 24.00	
  6.796	-166.229	 10.32955	  3.29490	  7.36120	  4.65838	  5.82208	 -0.04681	 10.47936	704.44702	 24.00	
  6.808	-152.311	 10.30617	  3.43156	  7.15583	  4.17787	  6.30935	 -0.05696	 10.46181	704.30603	 24.00	
  6.795	-138.383	 10.29072	  3.68183	  6.83064	  3.76090	  6.76147	 -0.07592	 10.44807	704.39301	 23.90	
  6.792	-124.591	 10.30764	  4.03470	  6.43019	  3.44226	  7.14563	 -0.07914	 10.46878	704.31799	 23.90	
  6.787	-110.754	 10.28726	  4.45713	  5.93978	  3.21696	  7.39423	 -0.08588	 10.45458	704.48297	 23.90	
  6.800	-96.985	 10.28901	  4.93793	  5.43202	  3.09963	  7.53894	 -0.09942	 10.46082	704.41901	 24.00	
  6.800	-83.015	 10.29452	  5.46655	  4.90608	  3.09500	  7.55068	 -0.09794	 10.47473	704.39099	 24.00	
  6.787	-69.246	 10.28455	  5.97546	  4.41096	  3.19350	  7.41599	 -0.09302	 10.46549	704.36902	 24.00	
  6.792	-55.409	 10.28127	  6.45719	  3.96845	  3.39688	  7.16291	 -0.08972	 10.46379	704.33698	 24.00	
  6.795	-41.617	 10.27300	  6.87086	  3.60147	  3.70504	  6.79162	 -0.07180	 10.45619	704.35699	 24.00	
  6.808	-27.689	 10.28710	  7.21546	  3.32522	  4.10920	  6.34537	 -0.05740	 10.46747	704.28101	 24.00	
  6.796	-13.771	 10.28500	  7.42340	  3.15666	  4.57113	  5.84531	 -0.05722	 10.46855	704.47498	 23.90	
  6.800	  0.000	 10.28649	  7.50351	  3.09264	  5.06941	  5.33097	 -0.06189	 10.46469	704.37201	 23.90	
  6.796	 13.771	 10.29347	  7.45475	  3.13955	  5.59400	  4.81867	 -0.06461	 10.46212	704.34003	 23.90	
  6.808	 27.689	 10.29312	  7.26970	  3.29810	  6.09913	  4.34714	 -0.06649	 10.45679	704.40698	 23.90	
  6.795	 41.617	 10.31808	  6.97342	  3.57731	  6.56177	  3.96249	 -0.06796	 10.47320	704.41901	 23.90	
  6.792	 55.409	 10.30960	  6.56042	  3.92976	  6.92460	  3.64599	 -0.06977	 10.44985	704.34802	 23.90	
  6.787	 69.246	 10.32485	  6.09601	  4.36676	  7.19983	  3.43293	 -0.06511	 10.45652	704.30103	 23.90	
  6.800	 83.015	 10.32341	  5.58591	  4.84427	  7.34469	  3.31505	 -0.07031	 10.44985	704.26398	 23.90	
  6.800	 96.985	 10.34600	  5.07194	  5.38068	  7.36972	  3.31847	 -0.06569	 10.46915	704.30298	 23.90	
  6.787	110.754	 10.33723	  4.57589	  5.89172	  7.23326	  3.42203	 -0.05635	 10.45271	704.27301	 23.90	
  6.792	124.591	 10.36114	  4.14995	  6.39275	  6.99998	  3.63978	 -0.04232	 10.47716	704.35199	 23.90	
  6.795	138.383	 10.32969	  3.77612	  6.79281	  6.62212	  3.93386	 -0.03156	 10.45148	704.29602	 23.90	
  6.808	152.311	 10.33777	  3.49831	  7.13437	  6.18847	  4.32276	 -0.02519	 10.46056	704.26398	 23.90	
  6.796	166.229	 10.32955	  3.32453	  7.33780	  5.68677	  4.78617	 -0.02629	 10.46053	704.35101	 24.00	
  8.491	168.704	 10.21556	  2.70430	  7.80895	  5.59251	  4.64105	 -0.10463	 10.47356	704.38000	 23.90	
  8.502	157.493	 10.20151	  2.84451	  7.62225	  6.09971	  4.15363	 -0.09102	 10.45120	704.35101	 24.00	
  8.494	146.194	 10.21958	  3.08125	  7.34899	  6.58841	  3.73208	 -0.09893	 10.46404	704.35199	 24.00	
  8.495	135.039	 10.22630	  3.38995	  6.98683	  7.02079	  3.36476	 -0.12033	 10.46028	704.51801	 24.00	
  8.487	123.723	 10.22506	  3.77664	  6.53691	  7.37239	  3.07251	 -0.13323	 10.46008	704.45300	 24.00	
  8.492	112.575	 10.21900	  4.21135	  6.04494	  7.62425	  2.86523	 -0.14117	 10.45504	704.50598	 24.00	
  8.510	101.220	 10.22127	  4.70178	  5.51608	  7.78500	  2.73469	 -0.15461	 10.45916	704.39600	 24.00	
  8.500	 90.000	 10.21104	  5.21878	  4.97877	  7.81977	  2.69679	 -0.16261	 10.45397	704.42102	 24.00	
  8.510	 78.780	 10.23257	  5.76228	  4.46734	  7.77752	  2.74285	 -0.15966	 10.48338	704.36798	 24.00	
  8.492	 67.425	 10.20594	  6.27063	  3.96664	  7.58063	  2.87346	 -0.15243	 10.46652	704.25098	 24.00	
  8.487	 56.277	 10.17909	  6.72918	  3.52682	  7.29158	  3.07937	 -0.15479	 10.44639	704.46198	 24.00	
  8.495	 44.961	 10.17069	  7.16189	  3.14193	  6.92196	  3.37837	 -0.15961	 10.45305	704.36603	 24.00	
  8.494	 33.806	 10.16821	  7.50592	  2.85127	  6.48164	  3.75494	 -0.15082	 10.45673	704.32098	 24.00	
  8.502	 22.507	 10.15594	  7.75843	  2.62700	  5.98686	  4.18759	 -0.14843	 10.45229	704.32001	 24.00	
  8.491	 11.296	 10.14582	  7.90197	  2.49842	  5.46360	  4.67111	 -0.14747	 10.45313	704.29797	 24.00	
  8.500	  0.000	 10.15058	  7.95232	  2.46179	  4.92883	  5.20396	 -0.14743	 10.46864	704.33197	 23.90	
  8.491	-11.296	 10.12838	  7.86673	  2.50938	  4.40255	  5.72447	 -0.13527	 10.44360	704.36902	 23.90	
  8.502	-22.507	 10.13683	  7.69748	  2.65145	  3.92539	  6.24508	 -0.12662	 10.45805	704.43597	 23.90	
  8.494	-33.806	 10.13705	  7.41270	  2.88205	  3.48552	  6.73935	 -0.13676	 10.46242	704.53699	 23.90	
  8.495	-44.961	 10.12691	  7.04052	  3.18447	  3.11333	  7.16580	 -0.15908	 10.45087	704.52600	 23.90	
  8.487	-56.277	 10.12105	  6.58627	  3.57417	  2.82407	  7.51277	 -0.17520	 10.44092	704.38800	 23.90	
  8.492	-67.425	 10.14143	  6.11028	  4.02052	  2.62022	  7.78740	 -0.17938	 10.46491	704.34497	 23.90	
  8.510	-78.780	 10.13353	  5.57653	  4.51142	  2.48583	  7.94805	 -0.18385	 10.45218	704.57703	 23.90	
  8.500	-90.000	 10.14252	  5.04677	  5.03853	  2.45462	  8.00058	 -0.18889	 10.45789	704.43799	 23.90	
  8.510	-101.220	 10.12876	  4.51977	  5.56467	  2.49682	  7.92940	 -0.18585	 10.44118	704.41901	 23.90	
  8.492	-112.575	 10.15399	  4.05166	  6.10264	  2.65616	  7.76286	 -0.16521	 10.45993	704.38202	 23.90	
  8.487	-123.723	 10.14477	  3.62150	  6.57918	  2.87868	  7.48588	 -0.15095	 10.44285	704.43103	 23.90	
  8.495	-135.039	 10.16313	  3.25893	  7.02712	  3.18602	  7.13743	 -0.14434	 10.45756	704.34900	 23.90	
  8.494	-146.194	 10.17500	  2.97946	  7.38456	  3.57547	  6.70542	 -0.13703	 10.45876	704.45801	 24.00	
  8.502	-157.493	 10.16851	  2.77201	  7.64617	  4.02465	  6.20014	 -0.12403	 10.44644	704.56000	 24.00	
  8.491	-168.704	 10.17681	  2.66386	  7.80322	  4.51508	  5.68367	 -0.12066	 10.44672	704.54797	 23.90	
  8.500	180.000	 10.18523	  2.63362	  7.85767	  5.04026	  5.15292	 -0.12127	 10.44831	704.51398	 24.00	
 10.200	180.000	 10.01389	  2.00076	  8.27853	  4.89044	  4.98376	 -0.20700	 10.44885	704.46698	 23.90	
 10.191	-170.497	  9.99837	  2.01954	  8.22950	  4.35999	  5.51467	 -0.20854	 10.43900	704.52600	 23.90	
 10.210	-161.034	  9.99501	  2.11130	  8.09620	  3.85656	  6.04636	 -0.20437	 10.44481	704.50098	 23.90	
 10.194	-151.526	  9.97912	  2.28132	  7.85263	  3.37753	  6.56154	 -0.21249	 10.43255	704.49500	 23.90	
 10.190	-142.105	  9.98248	  2.52271	  7.54721	  2.96464	  7.04131	 -0.21700	 10.44498	704.53400	 23.90	
 10.215	-132.646	  9.98065	  2.81906	  7.17129	  2.60073	  7.46580	 -0.22240	 10.45119	704.58801	 23.90	
 10.203	-123.092	  9.97872	  3.19409	  6.71964	  2.30184	  7.82459	 -0.23092	 10.45668	704.57599	 23.90	
 10.192	-113.678	  9.96605	  3.62064	  6.21581	  2.07291	  8.09995	 -0.24415	 10.44765	704.49200	 23.90	
 10.208	-104.249	  9.94868	  4.08129	  5.68802	  1.90525	  8.28973	 -0.27003	 10.44244	704.54498	 23.90	
 10.210	-94.801	  9.94233	  4.59054	  5.14778	  1.82055	  8.39058	 -0.27582	 10.44036	704.51801	 23.90	
 10.210	-85.199	  9.93983	  5.13218	  4.60195	  1.81043	  8.39811	 -0.27897	 10.44308	704.47498	 24.00	
 10.208	-75.751	  9.93112	  5.66573	  4.08143	  1.87273	  8.30619	 -0.27602	 10.43746	704.38800	 23.90	
 10.192	-66.322	  9.94147	  6.19661	  3.60478	  2.02228	  8.12656	 -0.27291	 10.44682	704.45898	 24.00	
 10.203	-56.908	  9.94365	  6.70083	  3.16121	  2.23429	  7.85669	 -0.25918	 10.45314	704.43402	 24.00	
 10.215	-47.354	  9.92431	  7.15131	  2.76036	  2.51456	  7.48971	 -0.24609	 10.42800	704.52899	 24.00	
 10.190	-37.895	  9.93246	  7.55178	  2.43821	  2.86016	  7.08209	 -0.22620	 10.43907	704.45300	 24.00	
 10.194	-28.474	  9.93548	  7.87837	  2.17849	  3.26439	  6.61680	 -0.20423	 10.44005	704.46198	 24.00	
 10.210	-18.966	  9.95221	  8.14230	  1.98310	  3.73339	  6.10845	 -0.20246	 10.45498	704.43903	 24.00	
 10.191	 -9.503	  9.95527	  8.29198	  1.86993	  4.22945	  5.58021	 -0.21680	 10.45177	704.56897	 24.00	
 10.200	  0.000	  9.94504	  8.34581	  1.81941	  4.74603	  5.03516	 -0.22798	 10.43726	704.70599	 24.00	
 10.191	  9.503	  9.94956	  8.31506	  1.84895	  5.29050	  4.50304	 -0.23762	 10.43565	704.55701	 24.00	
 10.210	 18.966	  9.95120	  8.18574	  1.95446	  5.81993	  4.00255	 -0.23926	 10.42695	704.54901	 24.00	
 10.194	 28.474	  9.98410	  7.98450	  2.14759	  6.34959	  3.55416	 -0.23958	 10.45058	704.69800	 24.00	
 10.190	 37.895	 10.00081	  7.69333	  2.39890	  6.83739	  3.14575	 -0.24537	 10.45478	704.50598	 24.00	
 10.215	 47.354	  9.98834	  7.30976	  2.70465	  7.25932	  2.77947	 -0.24732	 10.43813	704.46698	 24.00	
 10.203	 56.908	 10.00454	  6.87347	  3.09797	  7.62035	  2.50336	 -0.24240	 10.43894	704.56897	 24.00	
 10.192	 66.322	 10.02439	  6.39380	  3.54508	  7.90756	  2.29707	 -0.24099	 10.44660	704.56500	 24.00	
 10.208	 75.751	 10.02579	  5.87747	  4.01615	  8.11065	  2.14042	 -0.25838	 10.44079	704.53198	 24.00	
 10.210	 85.199	 10.03547	  5.34905	  4.53232	  8.21778	  2.06846	 -0.26688	 10.44597	704.52899	 24.00	
 10.210	 94.801	 10.04173	  4.80509	  5.08199	  8.23279	  2.06600	 -0.26897	 10.44424	704.56000	 24.00	
 10.208	104.249	 10.05655	  4.29316	  5.62870	  8.15778	  2.13747	 -0.25597	 10.45098	704.56500	 24.00	
 10.192	113.678	 10.06281	  3.81337	  6.15842	  7.97827	  2.28604	 -0.23889	 10.45303	704.60999	 24.00	
 10.203	123.092	 10.07762	  3.37665	  6.66938	  7.73176	  2.49235	 -0.22548	 10.47156	704.55499	 24.00	
 10.215	132.646	 10.05578	  2.97537	  7.11932	  7.37442	  2.76192	 -0.21022	 10.45214	704.52100	 24.00	
 10.190	142.105	 10.04284	  2.64666	  7.50438	  6.94905	  3.10894	 -0.19133	 10.43882	704.63501	 24.00	
 10.194	151.526	 10.04896	  2.38699	  7.83572	  6.48466	  3.51979	 -0.17211	 10.45152	704.63202	 24.00	
 10.210	161.034	 10.03848	  2.18356	  8.08243	  5.97605	  3.96792	 -0.17554	 10.45518	704.74298	 24.00	
 10.191	170.497	 10.02335	  2.06103	  8.22184	  5.44070	  4.45929	 -0.18993	 10.44711	704.57599	 24.00	
 11.899	171.783	  9.83768	  1.42999	  8.63714	  5.28227	  4.26782	 -0.27800	 10.46585	704.55701	 24.00	
 11.890	163.610	  9.82236	  1.53585	  8.48221	  5.80307	  3.76511	 -0.25951	 10.43624	704.71997	 24.00	
 11.889	155.445	  9.81413	  1.70254	  8.25431	  6.31280	  3.29630	 -0.24604	 10.41637	704.57300	 24.00	
 11.909	147.299	  9.83115	  1.92451	  7.98158	  6.82242	  2.86436	 -0.25936	 10.43243	704.61102	 24.00	
 11.902	139.148	  9.83375	  2.21571	  7.61940	  7.27465	  2.48920	 -0.27454	 10.42699	704.51703	 24.00	
 11.894	130.867	  9.86079	  2.56758	  7.21461	  7.69058	  2.17777	 -0.29150	 10.45051	704.68298	 24.00	
 11.897	122.732	  9.85376	  2.95413	  6.74587	  8.02746	  1.90344	 -0.31231	 10.44451	704.71802	 24.00	
 11.903	114.597	  9.85108	  3.38808	  6.24039	  8.29894	  1.69238	 -0.33572	 10.44636	704.69397	 24.00	
 11.893	106.346	  9.83467	  3.86805	  5.69269	  8.48029	  1.54109	 -0.35570	 10.42735	704.60797	 24.00	
 11.892	 98.155	  9.83221	  4.37830	  5.14965	  8.59247	  1.45358	 -0.36941	 10.43102	704.44501	 24.00	
 11.900	 90.000	  9.83162	  4.90385	  4.61229	  8.62721	  1.42421	 -0.37350	 10.43652	704.46997	 24.00	
 11.892	 81.845	  9.82690	  5.44321	  4.08241	  8.56881	  1.46287	 -0.36143	 10.43916	704.50702	 24.00	
 11.893	 73.654	  9.83143	  5.98513	  3.57798	  8.44257	  1.55863	 -0.34585	 10.45164	704.66400	 24.00	
 11.903	 65.403	  9.80282	  6.49341	  3.09334	  8.20879	  1.71153	 -0.32824	 10.43241	704.53802	 24.00	
 11.897	 57.268	  9.81017	  6.99352	  2.66664	  7.92835	  1.93309	 -0.32507	 10.45340	704.62701	 24.00	
 11.894	 49.133	  9.77878	  7.41995	  2.27929	  7.54980	  2.20559	 -0.32801	 10.42589	704.65601	 24.00	
 11.902	 40.852	  9.77324	  7.82230	  1.94421	  7.13868	  2.53289	 -0.33075	 10.43546	704.63300	 24.00	
 11.909	 32.701	  9.76250	  8.15139	  1.67079	  6.67407	  2.91266	 -0.33589	 10.43541	704.62097	 24.00	
 11.889	 24.555	  9.75251	  8.40709	  1.46483	  6.16217	  3.35315	 -0.33112	 10.43481	704.70099	 24.00	
 11.890	 16.390	  9.74337	  8.59375	  1.31008	  5.63742	  3.82267	 -0.32550	 10.43811	704.68701	 24.00	
 11.899	  8.217	  9.75093	  8.71670	  1.21848	  5.10950	  4.32801	 -0.32130	 10.45588	704.68103	 24.00	
 11.900	  0.000	  9.73029	  8.72713	  1.19563	  4.55277	  4.85907	 -0.30236	 10.43675	704.68903	 24.00	
 11.899	 -8.217	  9.73226	  8.67630	  1.23292	  4.03031	  5.40002	 -0.29231	 10.44790	704.56500	 24.00	
 11.890	-16.390	  9.71562	  8.52383	  1.33726	  3.52779	  5.92229	 -0.28261	 10.43119	704.53699	 24.00	
 11.889	-24.555	  9.70226	  8.29662	  1.50013	  3.05196	  6.44307	 -0.27119	 10.42192	704.56799	 24.00	
 11.909	-32.701	  9.70630	  8.01471	  1.72012	  2.62609	  6.94186	 -0.28065	 10.43137	704.55701	 24.00	
 11.902	-40.852	  9.71533	  7.66493	  2.00606	  2.25902	  7.39332	 -0.29939	 10.44001	704.52600	 24.00	
 11.894	-49.133	  9.71464	  7.24175	  2.34779	  1.92781	  7.80281	 -0.32079	 10.43520	704.69000	 24.00	
 11.897	-57.268	  9.70837	  6.77306	  2.73329	  1.65313	  8.14587	 -0.33518	 10.43186	704.65900	 24.00	
 11.903	-65.403	  9.70134	  6.26357	  3.16740	  1.43774	  8.41947	 -0.34629	 10.42572	704.59900	 24.00	
 11.893	-73.654	  9.72751	  5.74577	  3.65934	  1.30089	  8.63231	 -0.34798	 10.45285	704.64099	 24.00	
 11.892	-81.845	  9.72458	  5.20438	  4.16863	  1.21975	  8.74443	 -0.35639	 10.44770	704.71198	 24.00	
 11.900	-90.000	  9.72100	  4.66124	  4.69677	  1.19449	  8.77416	 -0.36558	 10.44042	704.80701	 24.00	
 11.892	-98.155	  9.71832	  4.13465	  5.23343	  1.23468	  8.71798	 -0.36253	 10.42986	704.75897	 24.00	
 11.893	-106.346	  9.72078	  3.63442	  5.77088	  1.33251	  8.59106	 -0.34382	 10.42623	704.69800	 24.00	
 11.903	-114.597	  9.73905	  3.16798	  6.30754	  1.49572	  8.39751	 -0.32264	 10.43762	704.64203	 24.00	
 11.897	-122.732	  9.76107	  2.76084	  6.81539	  1.72676	  8.12807	 -0.30468	 10.45753	704.66998	 24.10	
 11.894	-130.867	  9.76795	  2.39313	  7.27175	  2.01535	  7.77056	 -0.29207	 10.45172	704.74902	 24.00	
 11.902	-139.148	  9.75548	  2.06729	  7.67272	  2.36058	  7.33712	 -0.29104	 10.43117	704.64203	 24.10	
 11.909	-147.299	  9.75995	  1.80278	  8.02025	  2.74560	  6.88300	 -0.29353	 10.42982	704.63501	 24.10	
 11.889	-155.445	  9.76583	  1.61231	  8.28813	  3.18887	  6.38073	 -0.29399	 10.42444	704.62402	 24.10	
 11.890	-163.610	  9.79251	  1.47737	  8.50487	  3.68044	  5.86425	 -0.29642	 10.44221	704.61798	 24.10	
 11.899	-171.783	  9.78159	  1.39534	  8.61167	  4.17986	  5.32077	 -0.29965	 10.42951	704.58698	 24.10	
 11.900	180.000	  9.78677	  1.38069	  8.64595	  4.70979	  4.78525	 -0.29254	 10.41891	704.73700	 24.10	
 13.600	180.000	  9.54925	  0.76464	  9.00220	  4.51144	  4.56393	 -0.38193	 10.42410	704.53699	 24.00	
 13.608	-172.853	  9.54077	  0.76813	  8.97784	  3.98650	  5.09305	 -0.38814	 10.42799	704.56299	 24.00	
 13.611	-165.583	  9.54182	  0.83032	  8.88055	  3.47318	  5.63978	 -0.38819	 10.44228	704.71997	 24.00	
 13.601	-158.353	  9.53042	  0.95051	  8.69445	  2.97957	  6.17963	 -0.37943	 10.43858	704.79303	 24.00	
 13.609	-151.210	  9.51847	  1.11816	  8.44359	  2.52804	  6.68516	 -0.37188	 10.43188	704.58301	 24.00	
 13.611	-143.999	  9.50366	  1.33717	  8.12554	  2.11558	  7.16479	 -0.36458	 10.42014	704.71698	 24.00	
 13.601	-136.825	  9.49722	  1.60920	  7.75390	  1.74476	  7.61292	 -0.36138	 10.42257	704.66400	 24.00	
 13.596	-129.640	  9.48674	  1.93236	  7.32558	  1.42003	  8.01553	 -0.35731	 10.42471	704.58801	 24.00	
