FileType=PCF
NHL=14
Date=08/24/17	14:18:07
Facility=APL
Serial=16328-3
Customer=NASA
NP=6
Mach=0.250000
Calibration=1:1
CalPts=490
TstPts=95
PortNumbering=AP Standard
Units=Torr C m/s kg/m^3 deg mm 
Theta[deg]	Phi[deg]	P1[Torr]	P2[Torr]	P3[Torr]	P4[Torr]	P5[Torr]	P6[Torr]	Pt[Torr]	Ps[Abs,Torr]	Ts[C]	
  0.000	  0.000	 30.48290	 16.15490	 15.85561	 15.86202	 16.32917	  0.30944	 30.43778	705.50800	 24.00	
  1.691	128.401	 30.44156	 15.14281	 16.76041	 17.03300	 15.04920	  0.29719	 30.40397	705.51398	 24.00	
  1.692	 77.194	 30.47015	 16.53044	 15.46806	 17.33249	 14.75958	  0.28749	 30.42705	705.40601	 24.00	
  1.699	 26.182	 30.49166	 17.61830	 14.36746	 16.43890	 15.60275	  0.29479	 30.45611	705.54401	 24.00	
  1.699	-26.182	 30.52315	 17.59789	 14.39714	 15.13442	 17.11778	  0.28286	 30.48232	705.60303	 24.00	
  1.692	-77.194	 30.51466	 16.44388	 15.54404	 14.35208	 17.94478	  0.27946	 30.47560	705.57599	 24.00	
  1.691	-128.401	 30.50331	 15.08276	 16.85820	 14.64454	 17.64053	  0.29049	 30.46329	705.52002	 24.00	
  1.700	180.000	 30.48675	 14.53861	 17.41851	 15.82383	 16.30841	  0.30044	 30.43991	705.58398	 24.00	
  3.400	180.000	 30.45886	 12.73818	 18.94886	 15.72728	 16.18688	  0.24619	 30.46676	705.59302	 24.00	
  3.388	-152.325	 30.44598	 13.02802	 18.59181	 14.32280	 17.73236	  0.24718	 30.46037	705.46002	 24.00	
  3.397	-124.529	 30.40485	 14.01178	 17.53312	 13.19263	 18.83271	  0.23035	 30.42963	705.51599	 24.00	
  3.399	-96.763	 30.40692	 15.41057	 16.06086	 12.54647	 19.37412	  0.21900	 30.42858	705.46503	 24.00	
  3.394	-69.283	 30.42000	 16.99339	 14.55119	 12.74213	 19.21805	  0.21703	 30.46046	705.53003	 24.00	
  3.400	-41.398	 30.41617	 18.35080	 13.10821	 13.61954	 18.38280	  0.23559	 30.44982	705.52197	 24.00	
  3.401	-14.021	 30.44778	 19.13287	 12.41783	 14.86978	 17.06990	  0.25282	 30.49015	705.46002	 24.00	
  3.401	 14.021	 30.40998	 19.14572	 12.37245	 16.31688	 15.40392	  0.22230	 30.44525	705.58698	 24.00	
  3.400	 41.398	 30.40963	 18.50200	 13.02772	 17.71593	 14.08872	  0.23529	 30.42765	705.52698	 24.00	
  3.394	 69.283	 30.44323	 17.26546	 14.53882	 18.64693	 13.24482	  0.23087	 30.45420	705.41302	 24.00	
  3.399	 96.763	 30.43357	 15.70927	 16.03225	 18.89626	 13.03551	  0.23867	 30.42541	705.45801	 24.00	
  3.397	124.529	 30.43076	 14.30487	 17.44341	 18.34326	 13.58162	  0.25062	 30.41373	705.32599	 24.00	
  3.388	152.325	 30.42531	 13.08813	 18.52818	 17.16764	 14.72380	  0.26710	 30.42054	705.48901	 24.00	
  5.099	161.165	 30.28932	 11.34781	 20.08515	 17.02074	 14.37672	  0.16564	 30.41819	705.40601	 24.00	
  5.109	142.013	 30.30176	 12.05307	 19.26147	 18.47281	 12.81083	  0.10796	 30.40984	705.43201	 24.00	
  5.095	123.033	 30.32628	 13.15378	 18.02643	 19.53305	 11.93606	  0.11200	 30.43431	705.49597	 24.00	
  5.105	104.191	 30.32286	 14.75541	 16.54540	 20.16523	 11.35131	  0.13917	 30.43392	705.52197	 24.00	
  5.093	 85.207	 30.31844	 16.31184	 15.02794	 20.25039	 11.24021	  0.06963	 30.44221	705.45502	 24.00	
  5.104	 66.290	 30.31569	 17.88192	 13.25499	 19.83570	 11.61069	  0.09696	 30.45956	705.51599	 24.00	
  5.094	 47.331	 30.23695	 19.15129	 11.95343	 18.87671	 12.32100	  0.04189	 30.39586	705.51398	 24.00	
  5.089	 28.397	 30.28017	 20.11670	 11.04140	 17.62997	 13.70321	  0.07294	 30.46425	705.54999	 24.00	
  5.096	  9.576	 30.25356	 20.57234	 10.58308	 16.10361	 15.15677	  0.12951	 30.46311	705.53003	 24.00	
  5.096	 -9.576	 30.19958	 20.51521	 10.59228	 14.53003	 16.72583	  0.07545	 30.41594	705.45801	 24.00	
  5.089	-28.397	 30.22235	 19.96601	 11.09668	 13.03858	 18.30749	  0.14308	 30.44266	705.52802	 24.00	
  5.094	-47.331	 30.18527	 18.87527	 12.07435	 11.82400	 19.50958	  0.02148	 30.40376	705.44897	 24.00	
  5.104	-66.290	 30.20089	 17.52404	 13.35849	 10.99907	 20.37326	 -0.00643	 30.42343	705.43500	 24.00	
  5.093	-85.207	 30.12220	 15.87749	 14.96893	 10.66164	 20.65194	  0.08747	 30.32884	705.46899	 24.00	
  5.105	-104.191	 30.22447	 14.33189	 16.63817	 10.82376	 20.59036	 -0.01154	 30.42369	705.46002	 24.00	
  5.095	-123.033	 30.21354	 12.90631	 18.10149	 11.44993	 19.96033	  0.01994	 30.39602	705.41803	 24.00	
  5.109	-142.013	 30.18127	 11.85205	 19.29297	 12.47804	 18.87800	  0.04452	 30.35565	705.35901	 24.00	
  5.099	-161.165	 30.22341	 11.23046	 20.07535	 14.01988	 17.50056	  0.08263	 30.38558	705.41602	 24.00	
  5.100	180.000	 30.21888	 11.05788	 20.31907	 15.47630	 15.87712	  0.17090	 30.37068	705.31897	 24.00	
  6.800	180.000	 29.94139	  9.25879	 21.56889	 15.18495	 15.51748	 -0.06440	 30.34581	705.21503	 24.00	
  6.796	-166.229	 29.94918	  9.37171	 21.39410	 13.69120	 17.11860	 -0.10154	 30.36839	705.34198	 24.00	
  6.808	-152.311	 29.88621	  9.79513	 20.86622	 12.12575	 18.54769	 -0.12447	 30.32090	705.41302	 24.00	
  6.795	-138.383	 29.89583	 10.57370	 19.99759	 10.88266	 19.82225	 -0.15570	 30.34414	705.45697	 24.00	
  6.792	-124.591	 29.88897	 11.56625	 18.82713	  9.78912	 20.84325	 -0.19040	 30.35591	705.43500	 24.00	
  6.787	-110.754	 29.89581	 12.83097	 17.41311	  9.17943	 21.50359	 -0.21720	 30.38250	705.41998	 24.00	
  6.800	-96.985	 29.88219	 14.25701	 15.88856	  8.87765	 21.89031	 -0.22577	 30.37534	705.51398	 24.00	
  6.800	-83.015	 29.81543	 15.87359	 14.10956	  8.82563	 21.86232	 -0.23529	 30.32088	705.46002	 24.00	
  6.787	-69.246	 29.83186	 17.49955	 12.69507	  9.09128	 21.52638	 -0.23137	 30.34634	705.50800	 24.00	
  6.792	-55.409	 29.86291	 18.90126	 11.39323	  9.66562	 20.90449	 -0.20105	 30.37680	705.50598	 24.00	
  6.795	-41.617	 29.88764	 20.08283	 10.29597	 10.63269	 19.93439	 -0.13282	 30.40664	705.37000	 24.00	
  6.808	-27.689	 29.87037	 21.01177	  9.48730	 11.85935	 18.66040	 -0.08493	 30.39630	705.58197	 24.00	
  6.796	-13.771	 29.84983	 21.59192	  9.00504	 13.30110	 17.14539	 -0.08217	 30.36566	705.61298	 24.00	
  6.800	  0.000	 29.86150	 21.82978	  8.82974	 14.90347	 15.59723	 -0.09042	 30.35857	705.52301	 24.00	
  6.796	 13.771	 29.87988	 21.66732	  8.98782	 16.41509	 14.02969	 -0.12368	 30.36617	705.38098	 24.00	
  6.808	 27.689	 29.93336	 21.23713	  9.43289	 17.95035	 12.47845	 -0.11899	 30.39886	705.36401	 24.00	
  6.795	 41.617	 29.93118	 20.36676	 10.22842	 19.22442	 11.43080	 -0.12671	 30.36972	705.41803	 23.90	
  6.792	 55.409	 29.90607	 19.22495	 11.18487	 20.24024	 10.51054	 -0.15102	 30.32076	705.53699	 23.90	
  6.787	 69.246	 29.98405	 17.92184	 12.50293	 21.03630	  9.91003	 -0.14860	 30.37528	705.40399	 23.90	
  6.800	 83.015	 30.01978	 16.42608	 13.93566	 21.41848	  9.57564	 -0.14430	 30.39112	705.35699	 23.90	
  6.800	 96.985	 30.03886	 14.81882	 15.76447	 21.44518	  9.51531	 -0.14024	 30.39663	705.42401	 23.90	
  6.787	110.754	 30.00857	 13.18512	 17.28629	 21.13093	  9.83285	 -0.11809	 30.34685	705.36499	 23.90	
  6.792	124.591	 30.05688	 11.93161	 18.74888	 20.48939	 10.46862	 -0.07538	 30.38655	705.39301	 23.90	
  6.795	138.383	 30.02777	 10.84751	 19.92040	 19.46264	 11.34353	 -0.03661	 30.36753	705.43298	 23.90	
  6.808	152.311	 30.03958	 10.00257	 20.88223	 18.18504	 12.43341	 -0.01135	 30.40124	705.51599	 23.90	
  6.796	166.229	 30.00628	  9.50649	 21.39607	 16.68530	 13.97060	 -0.02198	 30.37667	705.48798	 23.90	
  8.491	168.704	 29.64445	  7.84200	 22.65621	 16.37495	 13.31913	 -0.23289	 30.37933	705.55798	 23.90	
  8.502	157.493	 29.70160	  8.26586	 22.18792	 17.90309	 11.96755	 -0.20130	 30.42396	705.44897	 23.90	
  8.494	146.194	 29.70428	  8.92484	 21.45888	 19.33540	 10.76923	 -0.23039	 30.39804	705.38202	 23.90	
  8.495	135.039	 29.69187	  9.68310	 20.45859	 20.53372	  9.69700	 -0.25953	 30.37755	705.35400	 23.90	
  8.487	123.723	 29.72443	 10.85474	 19.23027	 21.44821	  8.82958	 -0.32102	 30.41149	705.42902	 23.90	
  8.492	112.575	 29.71896	 12.13815	 17.76704	 22.19008	  8.24296	 -0.35835	 30.40388	705.42401	 23.90	
  8.510	101.220	 29.67260	 13.56767	 16.19107	 22.61432	  7.85787	 -0.39225	 30.36129	705.49902	 23.90	
  8.500	 90.000	 29.69825	 15.25695	 14.38536	 22.75549	  7.83421	 -0.39416	 30.40150	705.40198	 23.90	
  8.510	 78.780	 29.65012	 16.84579	 12.82847	 22.55645	  7.94188	 -0.40314	 30.38784	705.45502	 23.90	
  8.492	 67.425	 29.66776	 18.41192	 11.38970	 22.05494	  8.34117	 -0.37677	 30.41880	705.34198	 23.90	
  8.487	 56.277	 29.63542	 19.77262	 10.19861	 21.24676	  8.91343	 -0.38505	 30.42099	705.38800	 23.90	
  8.495	 44.961	 29.57513	 20.91676	  9.09772	 20.27404	  9.78418	 -0.36781	 30.38485	705.40399	 23.90	
  8.494	 33.806	 29.56724	 21.83717	  8.22238	 19.03688	 10.88907	 -0.36578	 30.39502	705.32599	 23.90	
  8.502	 22.507	 29.57869	 22.60549	  7.62932	 17.63109	 12.07805	 -0.36574	 30.43534	705.45697	 23.90	
  8.491	 11.296	 29.56192	 23.02174	  7.26999	 16.08530	 13.44127	 -0.35659	 30.44466	705.48297	 23.90	
  8.500	  0.000	 29.53633	 23.15443	  7.10330	 14.51509	 15.21488	 -0.30650	 30.44652	705.38800	 23.90	
  8.491	-11.296	 29.51462	 22.94730	  7.24547	 12.77405	 16.76882	 -0.29653	 30.43261	705.41602	 23.90	
  8.502	-22.507	 29.48924	 22.43464	  7.63655	 11.31417	 18.36469	 -0.28043	 30.42415	705.44397	 23.90	
  8.494	-33.806	 29.51815	 21.59350	  8.35673	  9.99170	 19.77938	 -0.30958	 30.44666	705.29199	 23.90	
  8.495	-44.961	 29.49042	 20.55387	  9.21619	  8.92632	 20.94809	 -0.38142	 30.42013	705.38800	 23.80	
  8.487	-56.277	 29.49267	 19.35588	 10.28981	  8.14784	 21.87689	 -0.45275	 30.41657	705.40100	 23.90	
  8.492	-67.425	 29.50512	 17.93604	 11.57317	  7.63640	 22.61848	 -0.48109	 30.42000	705.43500	 23.90	
  8.510	-78.780	 29.51406	 16.29183	 13.02223	  7.28044	 23.09098	 -0.48314	 30.43010	705.41302	 23.80	
  8.500	-90.000	 29.56119	 14.62274	 14.58256	  7.17767	 23.24920	 -0.48343	 30.47517	705.53900	 23.80	
  8.510	-101.220	 29.55117	 13.07371	 16.29763	  7.29991	 23.08730	 -0.48637	 30.44870	705.34198	 23.80	
  8.492	-112.575	 29.56085	 11.65845	 17.89965	  7.70396	 22.57797	 -0.42837	 30.44133	705.32501	 23.80	
  8.487	-123.723	 29.57540	 10.41828	 19.32976	  8.33144	 21.81780	 -0.39052	 30.43076	705.32300	 23.80	
  8.495	-135.039	 29.61682	  9.32900	 20.60828	  9.14623	 20.91008	 -0.35351	 30.47066	705.39502	 23.80	
  8.494	-146.194	 29.64101	  8.51945	 21.63067	 10.27405	 19.71171	 -0.32873	 30.45947	705.44897	 23.80	
  8.502	-157.493	 29.63385	  7.94562	 22.28542	 11.71704	 18.28377	 -0.33470	 30.44158	705.49103	 23.80	
  8.491	-168.704	 29.67991	  7.67354	 22.74683	 13.18738	 16.77391	 -0.30509	 30.46295	705.53699	 23.80	
  8.500	180.000	 29.69745	  7.59894	 22.88423	 14.87921	 15.12482	 -0.28688	 30.45402	705.44098	 23.80	
 10.200	180.000	 29.21225	  5.85303	 24.08805	 14.20229	 14.54222	 -0.53173	 30.44402	705.40997	 23.80	
 10.191	-170.497	 29.20288	  5.89782	 23.98823	 12.67651	 16.21037	 -0.56677	 30.46510	705.45697	 23.80	
 10.210	-161.034	 29.15709	  6.14193	 23.58055	 11.11304	 17.84294	 -0.56257	 30.44928	705.47198	 23.80	
 10.194	-151.526	 29.11896	  6.56517	 22.89489	  9.70691	 19.31736	 -0.54339	 30.43364	705.39600	 23.80	
 10.190	-142.105	 29.12408	  7.22929	 22.04195	  8.59332	 20.65871	 -0.53212	 30.45658	705.45203	 23.80	
 10.215	-132.646	 29.09118	  8.05565	 21.00820	  7.55202	 21.75367	 -0.55278	 30.45915	705.48297	 23.80	
 10.203	-123.092	 29.09909	  9.13673	 19.71861	  6.67278	 22.82636	 -0.58395	 30.49826	705.59497	 23.80	
 10.192	-113.678	 29.03535	 10.39062	 18.21162	  6.03460	 23.56575	 -0.66787	 30.44271	705.45697	 23.80	
 10.208	-104.249	 29.04416	 11.77274	 16.63762	  5.57611	 24.16542	 -0.70447	 30.48578	705.34802	 23.80	
 10.210	-94.801	 29.06354	 13.29629	 14.93203	  5.33820	 24.49175	 -0.74874	 30.52836	705.53400	 23.80	
 10.210	-85.199	 29.01416	 14.87892	 13.29873	  5.30462	 24.48028	 -0.73739	 30.48341	705.53101	 23.80	
 10.208	-75.751	 28.97668	 16.54015	 11.76412	  5.48998	 24.17858	 -0.74737	 30.44860	705.47198	 23.80	
 10.192	-66.322	 29.01630	 18.23296	 10.38698	  5.88095	 23.65875	 -0.73300	 30.48448	705.41998	 23.80	
 10.203	-56.908	 29.01505	 19.66900	  9.14070	  6.47329	 22.88971	 -0.69908	 30.47836	705.44702	 23.70	
 10.215	-47.354	 28.97405	 20.90859	  7.98114	  7.26231	 21.84737	 -0.65306	 30.44343	705.45099	 23.70	
 10.190	-37.895	 28.99960	 22.04609	  7.09041	  8.25712	 20.76653	 -0.57952	 30.47464	705.52698	 23.70	
 10.194	-28.474	 29.03361	 23.02981	  6.32573	  9.38979	 19.47554	 -0.51316	 30.49494	705.33899	 23.70	
 10.210	-18.966	 28.99390	 23.73822	  5.75062	 10.73098	 17.92900	 -0.50356	 30.45081	705.44397	 23.70	
 10.191	 -9.503	 29.04418	 24.21170	  5.37661	 12.23833	 16.32774	 -0.52603	 30.48729	705.40900	 23.70	
 10.200	  0.000	 29.02996	 24.36355	  5.29625	 13.79195	 14.66194	 -0.57594	 30.46717	705.44299	 23.70	
 10.191	  9.503	 29.03839	 24.25848	  5.41208	 15.61049	 12.96701	 -0.62172	 30.45835	705.35602	 23.70	
 10.210	 18.966	 29.09114	 23.92983	  5.70064	 17.16207	 11.62967	 -0.62197	 30.48454	705.45099	 23.70	
 10.194	 28.474	 29.12446	 23.29930	  6.19469	 18.68353	 10.33957	 -0.62004	 30.48413	705.56799	 23.70	
 10.190	 37.895	 29.17319	 22.46195	  6.93044	 20.08471	  9.16150	 -0.61914	 30.50014	705.51898	 23.70	
 10.215	 47.354	 29.19589	 21.44061	  7.82882	 21.21807	  8.10437	 -0.62489	 30.50205	705.39301	 23.70	
 10.203	 56.908	 29.21258	 20.23474	  8.95288	 22.25132	  7.26926	 -0.61703	 30.49095	705.42401	 23.70	
 10.192	 66.322	 29.23439	 18.85919	 10.26281	 23.07700	  6.61224	 -0.62529	 30.48075	705.42102	 23.70	
 10.208	 75.751	 29.23408	 17.30869	 11.57628	 23.65405	  6.14861	 -0.67158	 30.45398	705.42102	 23.60	
 10.210	 85.199	 29.31292	 15.67789	 13.15230	 24.00688	  5.94026	 -0.68377	 30.50464	705.39600	 23.60	
 10.210	 94.801	 29.33208	 13.98557	 14.77239	 24.03058	  5.94665	 -0.69043	 30.49966	705.47998	 23.60	
 10.208	104.249	 29.34156	 12.46037	 16.51938	 23.78139	  6.13109	 -0.68300	 30.48739	705.32599	 23.60	
 10.192	113.678	 29.36255	 11.04222	 18.11243	 23.26187	  6.56237	 -0.62436	 30.50149	705.37903	 23.60	
 10.203	123.092	 29.35223	  9.82004	 19.56665	 22.53539	  7.13364	 -0.56202	 30.49448	705.47699	 23.60	
 10.215	132.646	 29.36550	  8.68820	 20.92092	 21.55519	  7.96077	 -0.50640	 30.52414	705.35699	 23.60	
 10.190	142.105	 29.32419	  7.69696	 21.96518	 20.42116	  8.99518	 -0.47945	 30.48099	705.42401	 23.60	
 10.194	151.526	 29.30055	  6.96096	 22.84607	 19.05089	 10.19670	 -0.43368	 30.46789	705.41602	 23.60	
 10.210	161.034	 29.31141	  6.39461	 23.56848	 17.55851	 11.48881	 -0.43148	 30.50669	705.35101	 23.60	
 10.191	170.497	 29.28091	  6.04080	 23.96583	 15.99742	 12.86274	 -0.48179	 30.49350	705.33002	 23.60	
 11.899	171.783	 28.72583	  4.18189	 25.15866	 15.33629	 12.33462	 -0.73618	 30.52544	705.36401	 23.60	
 11.890	163.610	 28.72353	  4.48157	 24.74023	 17.03122	 10.98752	 -0.67266	 30.49369	705.45099	 23.60	
 11.889	155.445	 28.72516	  4.94996	 24.12220	 18.59906	  9.63467	 -0.64158	 30.46367	705.30298	 23.60	
 11.909	147.299	 28.77231	  5.59377	 23.33095	 20.07121	  8.35488	 -0.67389	 30.51037	705.42700	 23.60	
 11.902	139.148	 28.74967	  6.40387	 22.28969	 21.24653	  7.18152	 -0.71388	 30.47954	705.33099	 23.60	
 11.894	130.867	 28.76332	  7.35045	 21.13528	 22.44252	  6.44070	 -0.76219	 30.50062	705.47699	 23.60	
 11.897	122.732	 28.77790	  8.63108	 19.83759	 23.46192	  5.64603	 -0.82436	 30.52438	705.46503	 23.60	
 11.903	114.597	 28.75528	  9.86151	 18.33177	 24.23146	  5.07456	 -0.88578	 30.48877	705.55103	 23.60	
 11.893	106.346	 28.75108	 11.19132	 16.70052	 24.79245	  4.66682	 -0.96123	 30.49392	705.53601	 23.60	
 11.892	 98.155	 28.73534	 12.66980	 14.95629	 25.12707	  4.38084	 -0.99431	 30.50366	705.59302	 23.60	
 11.900	 90.000	 28.69193	 14.20751	 13.35574	 25.19841	  4.30473	 -0.99904	 30.48421	705.42401	 23.60	
 11.892	 81.845	 28.68837	 15.87158	 11.78522	 25.03551	  4.42560	 -0.96664	 30.48006	705.54199	 23.60	
 11.893	 73.654	 28.64717	 17.56886	 10.30148	 24.62146	  4.66418	 -0.92650	 30.48348	705.52197	 23.60	
 11.903	 65.403	 28.64799	 19.16716	  8.96794	 24.00431	  5.09855	 -0.85728	 30.50523	705.54999	 23.50	
 11.897	 57.268	 28.61169	 20.56029	  7.67743	 23.13547	  5.72609	 -0.84836	 30.49559	705.48199	 23.60	
 11.894	 49.133	 28.59568	 21.77018	  6.55524	 22.07270	  6.51106	 -0.86753	 30.50423	705.42700	 23.60	
 11.902	 40.852	 28.55958	 22.84334	  5.62572	 20.91714	  7.36587	 -0.91335	 30.48125	705.46503	 23.50	
 11.909	 32.701	 28.58024	 23.85489	  4.83466	 19.66504	  8.48628	 -0.90734	 30.54385	705.56201	 23.50	
 11.889	 24.555	 28.57329	 24.61971	  4.22501	 18.16923	  9.77677	 -0.88945	 30.55415	705.43201	 23.50	
 11.890	 16.390	 28.48954	 25.11683	  3.83252	 16.55716	 11.10377	 -0.85940	 30.50516	705.49103	 23.50	
 11.899	  8.217	 28.45483	 25.41974	  3.55135	 14.82495	 12.45284	 -0.83045	 30.50503	705.45502	 23.50	
 11.900	  0.000	 28.45927	 25.51473	  3.47357	 13.22120	 14.03376	 -0.79628	 30.51858	705.40100	 23.50	
 11.899	 -8.217	 28.44641	 25.35900	  3.55205	 11.66055	 15.76203	 -0.74563	 30.52433	705.43298	 23.50	
 11.890	-16.390	 28.45347	 24.96861	  3.89646	 10.19059	 17.37970	 -0.73787	 30.54067	705.44702	 23.50	
 11.889	-24.555	 28.39569	 24.29303	  4.36087	  8.81613	 18.97374	 -0.71072	 30.49444	705.40198	 23.50	
 11.909	-32.701	 28.36673	 23.43317	  4.98101	  7.57863	 20.38741	 -0.75190	 30.47997	705.47498	 23.50	
 11.902	-40.852	 28.41492	 22.41636	  5.82892	  6.51384	 21.66514	 -0.81492	 30.52405	705.43201	 23.50	
 11.894	-49.133	 28.42882	 21.17007	  6.80537	  5.55477	 22.81368	 -0.86106	 30.54577	705.44098	 23.50	
 11.897	-57.268	 28.38229	 19.91514	  7.93269	  4.76909	 23.77470	 -0.90811	 30.49498	705.46503	 23.50	
 11.903	-65.403	 28.39245	 18.45220	  9.19436	  4.18192	 24.57665	 -0.94867	 30.51430	705.54498	 23.50	
 11.893	-73.654	 28.43550	 16.75764	 10.54762	  3.83331	 25.15870	 -0.94681	 30.53850	705.60101	 23.50	
 11.892	-81.845	 28.41060	 15.10498	 12.04786	  3.62299	 25.48620	 -0.93554	 30.50437	705.50800	 23.50	
 11.900	-90.000	 28.42868	 13.52347	 13.60991	  3.55299	 25.60992	 -0.94452	 30.52437	705.52301	 23.50	
 11.892	-98.155	 28.43900	 11.96666	 15.18476	  3.62474	 25.46890	 -0.94785	 30.51678	705.50800	 23.50	
 11.893	-106.346	 28.46412	 10.48850	 16.88848	  3.89071	 25.12353	 -0.92917	 30.53745	705.42102	 23.50	
 11.903	-114.597	 28.43667	  9.08737	 18.52202	  4.35473	 24.49499	 -0.85758	 30.49714	705.49701	 23.50	
 11.897	-122.732	 28.51381	  7.90130	 20.02752	  5.01030	 23.70236	 -0.80062	 30.55255	705.37299	 23.50	
 11.894	-130.867	 28.52243	  6.82803	 21.30861	  5.83691	 22.67023	 -0.74523	 30.51488	705.43701	 23.50	
 11.902	-139.148	 28.56191	  5.90871	 22.43470	  6.87962	 21.50472	 -0.73044	 30.53044	705.54498	 23.50	
 11.909	-147.299	 28.60995	  5.19911	 23.46853	  8.04738	 20.31196	 -0.75411	 30.55732	705.46503	 23.50	
 11.889	-155.445	 28.62692	  4.71748	 24.25061	  9.21830	 18.89705	 -0.77930	 30.52857	705.46600	 23.50	
 11.890	-163.610	 28.63911	  4.32647	 24.83391	 10.61952	 17.29768	 -0.80001	 30.51205	705.47400	 23.50	
 11.899	-171.783	 28.64817	  4.10384	 25.17525	 12.11593	 15.55947	 -0.80554	 30.49864	705.44897	 23.50	
 11.900	180.000	 28.70844	  4.07673	 25.30149	 13.72682	 13.90151	 -0.77942	 30.52980	705.37799	 23.50	
 13.600	180.000	 28.00199	  2.27525	 26.33040	 13.11085	 13.24637	 -1.04367	 30.53022	705.38800	 23.50	
 13.608	-172.853	 27.98944	  2.20797	 26.28035	 11.54959	 14.80564	 -1.07177	 30.56054	705.27100	 23.50	
 13.611	-165.583	 27.93284	  2.37650	 25.94946	 10.01640	 16.48264	 -1.05599	 30.53006	705.34802	 23.50	
 13.601	-158.353	 27.93032	  2.76554	 25.43450	  8.65827	 18.10842	 -1.04104	 30.54957	705.35602	 23.50	
 13.609	-151.210	 27.89035	  3.14382	 24.71402	  7.37225	 19.61230	 -1.00023	 30.54301	705.40100	 23.50	
 13.611	-143.999	 27.82944	  3.77773	 23.76379	  6.18246	 20.98788	 -0.96100	 30.51865	705.38800	 23.50	
 13.601	-136.825	 27.81304	  4.57948	 22.67327	  5.07921	 22.24010	 -0.93608	 30.52674	705.57800	 23.50	
 13.596	-129.640	 27.80557	  5.55292	 21.52994	  4.12631	 23.45018	 -0.94122	 30.55791	705.45502	 23.50	
